,time,condition,epoch,FC5,FC3,FC1,FCz,FC2,FC4,FC6,C5,C3,C1,Cz,C2,C4,C6,CP5,CP3,CP1,CPz,CP2,CP4,CP6,Fp1,Fpz,Fp2,AF7,AF3,AFz,AF4,AF8,F7,F5,F3,F1,Fz,F2,F4,F6,F8,FT7,FT8,T7,T8,T9,T10,TP7,TP8,P7,P5,P3,P1,Pz,P2,P4,P6,P8,PO7,PO3,POz,PO4,PO8,O1,Oz,O2,Iz
0,-0.2,T2,1,-43.333333333333336,-27.939393939393934,-17.939393939393938,-21.333333333333336,-6.878787878787878,-5.696969696969697,-3.5454545454545467,-29.696969696969695,-19.666666666666668,-5.484848484848483,-1.1515151515151512,-0.18181818181817824,12.030303030303031,11.09090909090909,-20.39393939393939,-3.5757575757575757,2.969696969696971,15.90909090909091,20.0,28.515151515151512,26.48484848484848,-36.45454545454545,-25.515151515151516,-25.757575757575754,-44.48484848484848,-42.06060606060606,-0.45454545454545403,-1.333333333333333,-13.060606060606062,-33.39393939393939,-30.303030303030305,-0.3636363636363634,7.515151515151515,10.757575757575756,7.030303030303029,7.727272727272726,-5.484848484848483,4.87878787878788,-18.12121212121212,9.848484848484851,-24.454545454545453,-1.2121212121212113,-45.424242424242415,15.454545454545455,-11.515151515151514,41.24242424242424,8.03030303030303,20.39393939393939,30.848484848484848,41.57575757575757,48.909090909090914,59.12121212121212,59.78787878787879,58.54545454545454,55.78787878787878,38.69696969696969,40.848484848484844,56.060606060606055,70.03030303030303,71.24242424242424,20.39393939393939,31.939393939393938,57.030303030303024,29.484848484848484
1,-0.19375,T2,1,11.666666666666668,30.06060606060606,38.06060606060606,32.666666666666664,36.12121212121212,20.303030303030305,9.454545454545455,17.3030303030303,31.33333333333333,39.515151515151516,39.84848484848485,28.818181818181824,31.030303030303024,17.090909090909093,23.606060606060606,35.42424242424242,38.96969696969697,47.90909090909091,44.0,46.51515151515151,39.48484848484848,-16.454545454545457,-0.5151515151515174,4.242424242424242,-18.484848484848484,-16.060606060606066,23.545454545454543,9.666666666666664,2.939393939393937,0.60606060606061,11.696969696969692,15.636363636363637,33.515151515151516,34.75757575757576,26.030303030303028,24.727272727272723,-1.4848484848484838,-3.1212121212121215,-4.121212121212119,9.848484848484851,-5.4545454545454515,5.787878787878788,8.575757575757574,12.454545454545457,11.48484848484849,22.242424242424242,19.03030303030303,24.393939393939394,23.848484848484848,36.57575757575757,39.909090909090914,41.12121212121212,41.78787878787878,33.54545454545455,25.78787878787879,26.696969696969695,28.848484848484848,35.060606060606055,39.03030303030304,25.24242424242424,47.39393939393939,51.93939393939394,56.03030303030303,39.48484848484848
2,-0.1875,T2,1,6.666666666666668,22.060606060606062,30.06060606060606,33.666666666666664,25.121212121212118,11.303030303030301,3.454545454545454,0.30303030303030326,17.333333333333332,24.51515151515152,28.848484848484848,17.81818181818182,21.03030303030303,15.09090909090909,2.6060606060606077,18.424242424242422,20.969696969696972,28.90909090909091,22.999999999999996,25.515151515151512,24.48484848484848,-16.454545454545457,-10.515151515151517,-6.757575757575758,-19.48484848484848,-16.060606060606066,14.545454545454545,-1.333333333333333,-11.060606060606062,-9.39393939393939,-0.30303030303030837,11.636363636363635,21.515151515151512,22.757575757575758,15.03030303030303,12.727272727272727,-0.4848484848484866,-5.121212121212121,-16.121212121212118,3.848484848484848,-7.454545454545453,-1.2121212121212113,-13.424242424242426,4.454545454545458,-4.515151515151513,-8.757575757575758,1.030303030303028,10.393939393939393,10.848484848484848,27.575757575757574,27.90909090909091,27.121212121212114,27.787878787878785,21.545454545454543,13.78787878787879,12.696969696969694,19.84848484848485,29.06060606060606,30.030303030303035,32.242424242424235,35.39393939393939,38.93939393939394,33.030303030303024,19.484848484848484
3,-0.18125,T2,1,-5.333333333333332,8.06060606060606,16.060606060606062,27.666666666666664,15.121212121212123,4.303030303030303,-1.5454545454545454,-2.696969696969696,10.333333333333332,19.515151515151516,23.848484848484848,17.81818181818182,10.03030303030303,2.090909090909092,6.606060606060607,21.424242424242422,23.96969696969697,24.90909090909091,20.0,18.515151515151516,8.484848484848483,-29.454545454545457,-20.515151515151516,-16.75757575757576,-24.48484848484848,-22.060606060606062,5.545454545454545,-6.333333333333332,-7.060606060606062,-10.393939393939386,-10.303030303030308,5.636363636363637,13.515151515151516,18.757575757575758,12.03030303030303,8.727272727272727,-6.4848484848484835,-15.121212121212121,-1.1212121212121204,3.848484848484848,11.545454545454547,-0.2121212121212116,3.575757575757574,-5.545454545454541,15.484848484848484,-0.7575757575757581,36.03030303030303,40.39393939393939,43.848484848484844,48.57575757575757,42.90909090909091,35.12121212121212,30.787878787878785,21.545454545454543,15.78787878787879,54.696969696969695,53.84848484848485,49.06060606060606,36.03030303030303,40.242424242424235,37.39393939393939,37.93939393939393,24.030303030303028,27.48484848484848
4,-0.175,T2,1,10.666666666666668,20.06060606060606,26.06060606060606,34.666666666666664,27.121212121212118,15.303030303030303,3.454545454545454,20.303030303030305,27.333333333333332,31.515151515151512,34.84848484848485,28.818181818181824,22.03030303030303,9.09090909090909,34.6060606060606,35.42424242424242,37.96969696969696,32.90909090909091,32.0,26.515151515151512,18.484848484848484,-11.454545454545459,-6.515151515151521,-10.757575757575756,-9.48484848484848,-8.060606060606059,13.545454545454545,3.6666666666666665,0.9393939393939372,-2.3939393939393883,-1.3030303030303056,8.636363636363635,16.515151515151512,18.757575757575758,12.03030303030303,9.727272727272725,-1.4848484848484838,-7.121212121212121,1.8787878787878778,13.848484848484855,18.545454545454547,11.787878787878787,3.575757575757574,1.4545454545454597,4.484848484848489,26.242424242424242,17.03030303030303,20.39393939393939,25.848484848484848,27.575757575757574,23.909090909090907,22.121212121212118,19.787878787878785,16.545454545454543,19.78787878787879,10.696969696969695,16.848484848484848,23.06060606060606,23.030303030303035,36.24242424242424,27.393939393939394,37.93939393939393,34.03030303030303,39.48484848484848
5,-0.16875,T2,1,-7.333333333333333,-1.9393939393939394,0.060606060606059976,3.6666666666666674,-2.8787878787878785,-8.696969696969697,-10.545454545454543,-5.696969696969696,-0.6666666666666682,1.5151515151515162,1.8484848484848486,-7.181818181818179,-2.9696969696969693,-9.909090909090908,2.6060606060606077,-0.5757575757575757,1.9696969696969704,-3.0909090909090873,-5.000000000000001,-7.484848484848487,-6.515151515151516,-24.454545454545457,-36.51515151515151,-50.75757575757575,-31.484848484848474,-30.060606060606066,-19.454545454545457,-26.333333333333336,-39.06060606060606,-26.393939393939384,-23.303030303030297,-14.363636363636363,-13.484848484848486,-18.24242424242424,-20.969696969696972,-23.272727272727273,-24.48484848484848,-51.12121212121212,-25.12121212121212,-10.151515151515147,-31.45454545454545,-8.212121212121211,-14.424242424242424,3.454545454545454,-12.51515151515151,-14.757575757575756,-1.9696969696969704,-10.606060606060606,-12.151515151515152,-19.42424242424242,-21.09090909090909,-22.87878787878788,-23.212121212121207,-20.454545454545453,-16.212121212121207,-22.303030303030308,-19.15151515151515,-29.939393939393938,-25.969696969696965,-15.757575757575756,-6.606060606060606,2.939393939393937,9.03030303030303,6.4848484848484835
6,-0.1625,T2,1,-34.33333333333333,-27.939393939393934,-19.93939393939394,-19.333333333333332,-23.87878787878788,-34.696969696969695,-32.54545454545455,-34.696969696969695,-26.666666666666664,-19.48484848484848,-25.151515151515152,-32.18181818181818,-38.96969696969697,-31.909090909090907,-18.39393939393939,-22.575757575757578,-24.030303030303028,-28.090909090909086,-35.99999999999999,-41.484848484848484,-35.515151515151516,-28.45454545454546,-40.515151515151516,-44.75757575757576,-37.484848484848484,-35.06060606060606,-27.454545454545453,-35.33333333333333,-46.06060606060606,-37.39393939393939,-29.303030303030308,-24.363636363636363,-17.484848484848488,-19.242424242424242,-23.96969696969697,-25.272727272727277,-40.484848484848484,-28.12121212121212,-26.121212121212118,-7.151515151515148,-8.45454545454545,3.787878787878788,0.5757575757575757,-4.545454545454544,-3.515151515151509,-24.757575757575754,-5.969696969696966,-12.606060606060607,-13.15151515151515,-28.424242424242422,-31.090909090909093,-40.878787878787875,-38.21212121212121,-32.45454545454545,-27.212121212121204,-15.303030303030306,-21.15151515151515,-40.93939393939393,-36.96969696969697,-32.75757575757576,-34.60606060606061,-44.06060606060606,-41.969696969696976,-40.515151515151516
7,-0.15625,T2,1,-13.333333333333334,-2.9393939393939386,1.0606060606060606,-1.333333333333333,-4.878787878787878,-16.696969696969695,-18.545454545454547,1.303030303030303,0.3333333333333324,1.5151515151515162,-9.15151515151515,-14.18181818181818,-20.96969696969697,-15.90909090909091,5.606060606060608,1.4242424242424248,-5.03030303030303,-15.090909090909088,-22.0,-23.484848484848488,-20.515151515151516,-24.454545454545457,-15.515151515151516,-15.757575757575756,-27.484848484848474,-23.06060606060606,-0.45454545454545403,-13.333333333333334,-15.060606060606062,-16.39393939393939,-17.3030303030303,-0.3636363636363634,4.515151515151515,3.7575757575757573,-0.9696969696969706,-5.272727272727273,-19.48484848484848,1.8787878787878778,-8.121212121212121,0.8484848484848498,8.545454545454547,-52.21212121212121,-0.4242424242424249,0.45454545454545575,4.484848484848489,-17.757575757575758,-7.969696969696967,-8.606060606060607,-5.151515151515152,-19.42424242424242,-24.09090909090909,-31.878787878787882,-27.21212121212121,-19.45454545454545,-13.21212121212121,-23.303030303030305,-26.15151515151515,-42.93939393939394,-30.969696969696965,-19.757575757575758,-42.6060606060606,-62.06060606060606,-64.96969696969697,-48.515151515151516
8,-0.15,T2,1,-18.333333333333332,-3.939393939393939,-0.9393939393939389,-1.333333333333333,0.12121212121212165,-5.696969696969697,-9.545454545454545,-13.696969696969697,-5.666666666666668,-4.484848484848482,-6.1515151515151505,-11.181818181818178,-10.969696969696969,-14.909090909090908,-13.393939393939391,-13.575757575757574,-11.030303030303031,-18.090909090909086,-22.0,-21.484848484848484,-13.515151515151517,-39.45454545454545,-14.51515151515152,-11.75757575757576,-33.484848484848484,-32.06060606060606,2.545454545454545,-4.333333333333333,-2.0606060606060628,-22.393939393939394,-33.3030303030303,10.636363636363637,6.515151515151514,9.757575757575758,8.03030303030303,2.7272727272727257,7.515151515151518,11.878787878787877,-18.12121212121212,3.848484848484848,-14.454545454545453,-27.21212121212121,-5.424242424242427,8.45454545454546,-14.515151515151512,1.2424242424242422,-22.969696969696965,-19.606060606060606,-14.15151515151515,-18.424242424242422,-15.090909090909088,-16.878787878787882,-11.212121212121213,1.5454545454545436,11.78787878787879,-26.303030303030305,-27.151515151515145,-27.939393939393938,-5.969696969696966,2.242424242424241,-38.6060606060606,-50.060606060606055,-45.96969696969696,-30.515151515151512
9,-0.14375,T2,1,-0.3333333333333324,16.060606060606062,23.06060606060606,21.666666666666668,31.121212121212118,30.3030303030303,29.454545454545453,4.303030303030303,11.333333333333332,16.515151515151516,19.848484848484848,19.81818181818182,25.03030303030303,28.09090909090909,-0.39393939393939237,8.424242424242424,6.96969696969697,6.909090909090912,8.999999999999998,13.515151515151514,26.48484848484848,14.545454545454543,17.48484848484848,13.24242424242424,21.51515151515152,18.939393939393934,34.54545454545454,30.66666666666666,23.939393939393938,19.606060606060613,8.696969696969694,40.63636363636364,39.51515151515151,41.75757575757576,39.030303030303024,38.72727272727272,37.51515151515151,37.878787878787875,15.878787878787879,35.848484848484844,16.545454545454543,38.78787878787878,18.575757575757574,3.454545454545454,-5.51515151515151,12.242424242424242,-9.969696969696969,-5.606060606060606,1.848484848484848,-2.4242424242424243,0.9090909090909115,7.121212121212118,12.787878787878787,19.545454545454543,25.78787878787879,-10.303030303030308,-9.151515151515149,-1.9393939393939394,18.030303030303035,24.242424242424242,-20.60606060606061,-14.060606060606062,-4.969696969696969,0.4848484848484832
10,-0.1375,T2,1,23.666666666666668,25.06060606060606,27.060606060606062,23.666666666666668,33.121212121212125,22.303030303030305,19.454545454545453,14.303030303030303,13.333333333333332,12.515151515151516,12.848484848484846,11.81818181818182,20.03030303030303,10.09090909090909,0.6060606060606082,5.424242424242425,5.96969696969697,3.90909090909091,8.0,12.515151515151512,14.484848484848483,24.545454545454543,-1.5151515151515214,-11.75757575757576,27.515151515151516,26.93939393939393,14.545454545454545,2.666666666666668,-11.060606060606062,26.60606060606061,15.696969696969694,27.636363636363637,24.515151515151512,20.757575757575754,17.03030303030303,17.727272727272727,12.515151515151517,17.87878787878788,25.87878787878788,5.8484848484848495,24.545454545454547,-9.212121212121211,-6.424242424242425,7.454545454545457,-6.515151515151514,8.24242424242424,-7.969696969696967,-0.6060606060606065,6.848484848484848,2.5757575757575752,4.90909090909091,15.12121212121212,16.78787878787879,17.545454545454543,16.787878787878793,-1.3030303030303056,-0.15151515151515077,11.06060606060606,23.030303030303035,33.242424242424235,3.3939393939393923,21.939393939393934,34.03030303030303,33.484848484848484
11,-0.13125,T2,1,26.666666666666668,18.06060606060606,8.060606060606059,-2.3333333333333317,8.121212121212121,-2.696969696969697,-6.545454545454545,12.303030303030301,4.333333333333331,-1.4848484848484838,-10.15151515151515,-9.18181818181818,-3.969696969696969,-12.909090909090908,-7.393939393939392,-7.575757575757574,-12.030303030303028,-12.09090909090909,-10.0,-9.484848484848484,-8.515151515151517,-9.454545454545457,-21.51515151515152,-24.757575757575758,-0.4848484848484798,0.9393939393939356,-17.454545454545457,-23.333333333333332,-15.060606060606062,10.606060606060609,-13.303030303030306,-5.363636363636362,-10.484848484848484,-18.24242424242424,-16.96969696969697,-15.272727272727273,-24.48484848484848,-15.121212121212121,9.878787878787879,-14.151515151515149,-13.45454545454545,-9.212121212121211,-19.424242424242422,-6.545454545454545,-32.51515151515151,-34.75757575757576,-34.969696969696976,-30.606060606060606,-27.151515151515145,-30.424242424242422,-28.090909090909093,-19.878787878787882,-20.21212121212121,-17.454545454545457,-18.21212121212121,-37.303030303030305,-40.15151515151515,-23.93939393939394,-13.969696969696964,-13.757575757575761,-6.606060606060606,12.939393939393936,29.030303030303028,16.48484848484848
12,-0.125,T2,1,-7.333333333333333,-15.939393939393938,-26.93939393939394,-33.333333333333336,-25.87878787878788,-25.696969696969695,-23.545454545454543,-13.696969696969697,-23.666666666666664,-27.484848484848477,-35.15151515151514,-25.181818181818176,-24.969696969696965,-20.90909090909091,-27.393939393939394,-26.575757575757574,-35.03030303030303,-30.090909090909086,-27.999999999999996,-20.484848484848488,-13.515151515151517,-35.45454545454545,-20.515151515151516,-17.757575757575758,-26.484848484848474,-28.06060606060606,-27.454545454545453,-19.333333333333332,-7.060606060606062,-18.39393939393939,-35.303030303030305,-15.363636363636362,-23.484848484848484,-25.24242424242424,-20.969696969696972,-19.272727272727273,-16.48484848484848,-21.121212121212118,-9.12121212121212,3.848484848484848,-51.454545454545446,-9.212121212121211,-13.424242424242426,-23.545454545454543,-36.51515151515151,-0.7575757575757581,-30.96969696969697,-33.60606060606061,-31.15151515151515,-30.424242424242422,-26.09090909090909,-14.878787878787882,-8.212121212121215,-2.454545454545455,-2.21212121212121,-43.303030303030305,-40.15151515151515,-20.939393939393938,-4.969696969696965,-3.7575757575757627,-30.606060606060606,-15.06060606060606,8.03030303030303,-16.515151515151516
13,-0.11875,T2,1,-12.333333333333332,-20.93939393939394,-23.939393939393934,-18.33333333333333,-17.878787878787875,-11.696969696969695,-4.545454545454544,-17.696969696969695,-27.666666666666668,-26.48484848484848,-28.15151515151515,-11.181818181818178,-13.969696969696967,-10.909090909090908,-33.39393939393939,-33.57575757575758,-33.030303030303024,-25.090909090909086,-19.0,-7.484848484848487,-1.5151515151515162,-6.4545454545454595,-2.5151515151515187,4.242424242424242,-14.48484848484848,-15.060606060606068,-7.454545454545455,3.6666666666666665,12.939393939393938,-25.393939393939384,-35.303030303030305,3.6363636363636362,-17.484848484848488,-10.24242424242424,-1.9696969696969704,-5.272727272727273,15.515151515151516,-2.121212121212121,-33.12121212121212,18.848484848484855,-62.45454545454546,16.78787878787879,-34.424242424242415,-19.545454545454543,-45.515151515151516,9.242424242424242,-52.96969696969696,-45.60606060606061,-44.15151515151515,-32.42424242424242,-28.090909090909093,-10.878787878787879,-4.212121212121213,2.5454545454545445,0.7878787878787915,-47.303030303030305,-46.15151515151515,-24.93939393939394,-3.969696969696965,-5.757575757575757,-44.60606060606061,-29.060606060606062,-1.9696969696969704,-30.515151515151512
14,-0.1125,T2,1,-32.33333333333332,-28.939393939393938,-17.939393939393938,-3.3333333333333326,4.121212121212122,17.3030303030303,24.454545454545453,-47.696969696969695,-37.66666666666667,-28.484848484848484,-20.151515151515152,3.8181818181818206,8.030303030303033,11.09090909090909,-46.393939393939384,-38.57575757575758,-31.03030303030303,-23.090909090909086,-10.0,-4.484848484848485,7.4848484848484835,44.54545454545454,26.48484848484848,29.24242424242424,20.515151515151523,18.939393939393934,20.545454545454547,33.66666666666666,35.93939393939394,-1.3939393939393914,-12.303030303030301,21.636363636363637,6.515151515151514,10.757575757575756,24.03030303030303,22.727272727272727,45.515151515151516,31.878787878787875,-32.121212121212125,34.84848484848485,-17.454545454545453,38.78787878787878,2.5757575757575735,15.454545454545455,-31.515151515151512,0.24242424242424243,-43.96969696969696,-35.60606060606061,-33.15151515151515,-30.424242424242422,-28.090909090909093,-19.878787878787882,-15.212121212121211,-12.454545454545455,-17.212121212121204,-42.303030303030305,-38.15151515151515,-30.939393939393934,-22.969696969696965,-31.757575757575758,-46.6060606060606,-32.06060606060607,-18.96969696969697,-39.515151515151516
15,-0.10625,T2,1,-10.333333333333332,-10.939393939393938,-0.9393939393939389,5.666666666666668,18.12121212121212,32.3030303030303,38.45454545454546,-20.6969696969697,-17.666666666666668,-15.484848484848484,-9.15151515151515,6.818181818181821,11.030303030303031,18.09090909090909,-20.39393939393939,-16.575757575757574,-20.030303030303024,-17.09090909090909,-8.0,-5.484848484848486,6.4848484848484835,27.54545454545454,30.48484848484848,36.24242424242424,24.51515151515152,23.93939393939393,24.545454545454543,41.666666666666664,34.93939393939394,11.606060606060613,-0.30303030303030837,24.636363636363633,8.515151515151514,11.757575757575758,27.03030303030303,26.727272727272727,46.51515151515151,29.878787878787882,0.8787878787878807,30.848484848484848,-0.45454545454545237,5.787878787878788,4.575757575757574,21.454545454545457,-9.515151515151512,-4.757575757575757,-17.969696969696965,-15.606060606060609,-17.151515151515152,-22.424242424242426,-22.09090909090909,-17.87878787878788,-10.212121212121211,-3.454545454545456,-4.212121212121208,-22.303030303030308,-19.15151515151515,-25.939393939393938,-15.969696969696965,-9.75757575757576,-36.6060606060606,-30.06060606060606,-23.96969696969697,-36.51515151515151
16,-0.1,T2,1,14.666666666666666,5.060606060606061,4.0606060606060606,2.666666666666668,14.121212121212121,27.303030303030305,28.454545454545457,6.303030303030304,3.3333333333333326,-3.4848484848484818,-6.1515151515151505,10.818181818181822,14.030303030303033,27.09090909090909,5.606060606060608,0.4242424242424249,-6.030303030303028,-6.0909090909090855,2.999999999999999,9.515151515151512,19.48484848484848,21.54545454545454,24.48484848484848,30.242424242424242,27.515151515151516,24.939393939393938,22.545454545454543,28.66666666666666,31.939393939393938,22.60606060606061,13.696969696969694,24.636363636363633,11.515151515151514,13.757575757575756,22.03030303030303,22.727272727272727,24.51515151515152,16.878787878787875,24.87878787878788,24.84848484848485,18.545454545454547,36.78787878787879,8.575757575757574,9.454545454545457,13.484848484848492,13.24242424242424,6.030303030303031,3.3939393939393923,-10.151515151515152,-10.424242424242426,-9.090909090909092,-2.878787878787882,2.7878787878787867,14.545454545454545,22.787878787878793,1.6969696969696928,-0.15151515151515077,-14.939393939393941,-5.969696969696966,4.242424242424239,-14.606060606060604,-13.060606060606066,-10.969696969696972,-9.515151515151516
17,-0.09375,T2,1,20.666666666666668,8.06060606060606,4.0606060606060606,-3.3333333333333326,5.121212121212121,18.3030303030303,17.454545454545453,6.303030303030304,2.3333333333333317,-3.4848484848484818,-8.151515151515152,11.81818181818182,11.030303030303031,22.090909090909093,5.606060606060608,-2.5757575757575752,-5.03030303030303,-8.090909090909086,2.999999999999999,7.515151515151513,14.484848484848483,11.545454545454541,11.484848484848479,11.24242424242424,17.515151515151516,16.93939393939393,7.545454545454546,5.666666666666666,7.939393939393938,15.606060606060609,7.696969696969696,-0.3636363636363634,-2.484848484848486,-0.2424242424242416,1.0303030303030298,3.727272727272726,2.5151515151515187,-1.1212121212121204,7.878787878787878,-3.1515151515151456,3.5454545454545467,12.787878787878789,6.575757575757576,-9.545454545454543,-4.515151515151513,10.242424242424242,-8.96969696969697,-6.606060606060606,-14.15151515151515,-16.424242424242422,-16.090909090909093,-11.87878787878788,-9.212121212121211,0.5454545454545449,10.78787878787879,-6.303030303030305,-7.151515151515148,-16.93939393939394,-15.969696969696965,0.2424242424242399,-1.606060606060607,-1.0606060606060657,-6.96969696969697,16.48484848484848
18,-0.0875,T2,1,-1.333333333333333,-13.93939393939394,-15.939393939393938,-19.333333333333332,-17.878787878787875,-8.696969696969697,-7.545454545454546,-12.696969696969695,-14.66666666666667,-19.48484848484848,-24.151515151515152,-10.181818181818178,-13.969696969696967,-9.909090909090908,-9.393939393939393,-12.575757575757574,-16.03030303030303,-22.09090909090909,-13.0,-11.484848484848486,-11.515151515151516,10.545454545454541,7.484848484848481,6.242424242424241,3.5151515151515227,3.939393939393934,-4.454545454545455,-1.333333333333333,0.9393939393939372,-5.3939393939393865,-12.303030303030301,-16.363636363636363,-22.484848484848484,-18.24242424242424,-13.969696969696969,-15.272727272727273,-15.484848484848483,-16.121212121212118,-17.121212121212125,-25.151515151515145,-11.454545454545455,-45.21212121212121,-13.424242424242426,11.454545454545459,-13.515151515151508,-3.7575757575757582,-9.969696969696969,-11.606060606060606,-15.15151515151515,-15.424242424242424,-17.09090909090909,-11.87878787878788,-11.212121212121213,-5.454545454545453,-0.21212121212120907,-5.303030303030308,-9.151515151515149,-11.939393939393941,-13.969696969696964,3.242424242424238,1.3939393939393947,-0.06060606060606167,-6.96969696969697,16.48484848484848
19,-0.08125,T2,1,-19.33333333333333,-30.93939393939394,-30.939393939393934,-27.333333333333332,-26.878787878787875,-16.696969696969695,-16.545454545454543,-19.696969696969695,-22.666666666666668,-30.484848484848484,-31.15151515151515,-22.181818181818176,-17.96969696969697,-19.909090909090907,-17.393939393939394,-17.57575757575757,-25.030303030303024,-24.09090909090909,-17.0,-14.484848484848484,-16.515151515151512,7.545454545454542,5.484848484848479,9.242424242424242,-8.484848484848484,-9.060606060606071,-12.454545454545455,-8.333333333333332,-6.060606060606062,-15.393939393939386,-22.3030303030303,-25.363636363636363,-29.484848484848488,-21.242424242424242,-17.969696969696972,-19.272727272727273,-17.484848484848484,-6.12121212121212,-9.12121212121212,-17.15151515151515,9.545454545454547,-31.21212121212121,-19.424242424242422,11.454545454545459,-22.51515151515151,-5.757575757575758,-11.969696969696969,-14.606060606060604,-14.15151515151515,-12.424242424242424,-13.090909090909086,-7.878787878787882,-6.212121212121213,-1.4545454545454546,1.7878787878787905,-7.303030303030302,-9.151515151515149,-6.939393939393942,-6.969696969696966,2.242424242424241,-8.606060606060607,-10.06060606060606,-10.969696969696972,-2.515151515151515
20,-0.075,T2,1,-2.3333333333333317,-13.93939393939394,-17.939393939393938,-16.333333333333336,-14.878787878787879,-3.696969696969697,-3.5454545454545467,14.303030303030303,1.333333333333333,-8.484848484848484,-10.15151515151515,-12.181818181818178,1.0303030303030305,-1.9090909090909087,11.606060606060607,8.424242424242424,0.9696969696969697,-0.09090909090908912,3.999999999999999,3.5151515151515134,-2.515151515151517,7.545454545454542,3.484848484848478,1.2424242424242404,9.51515151515152,7.939393939393936,-6.454545454545454,-12.333333333333332,-9.060606060606062,9.606060606060613,3.696969696969694,-15.363636363636362,-7.484848484848485,-7.242424242424242,-8.969696969696969,-6.272727272727274,-9.48484848484848,-2.121212121212121,18.87878787878788,-13.151515151515149,4.545454545454548,-38.21212121212121,-13.424242424242426,11.454545454545459,4.484848484848489,10.242424242424242,18.030303030303028,8.393939393939393,7.848484848484847,13.575757575757574,8.90909090909091,12.12121212121212,10.787878787878787,9.545454545454543,13.78787878787879,8.696969696969694,7.84848484848485,17.06060606060606,13.030303030303033,22.24242424242424,0.3939393939393941,0.9393939393939356,10.03030303030303,11.484848484848483
21,-0.06875,T2,1,8.666666666666668,3.060606060606061,-0.9393939393939389,-2.3333333333333317,-7.878787878787878,-0.6969696969696971,-5.545454545454544,13.303030303030303,9.33333333333333,3.5151515151515156,-1.1515151515151512,-2.1818181818181794,3.0303030303030307,1.0909090909090915,12.606060606060607,11.424242424242424,11.969696969696969,6.909090909090912,10.0,8.515151515151514,6.4848484848484835,3.5454545454545396,2.484848484848481,-6.757575757575758,6.515151515151521,7.939393939393936,-1.4545454545454546,-12.333333333333332,-15.060606060606062,9.606060606060613,3.696969696969694,-4.363636363636364,1.5151515151515147,5.757575757575757,0.03030303030302914,-0.2727272727272741,0.5151515151515174,-0.12121212121211995,6.878787878787877,2.848484848484851,-5.4545454545454515,60.78787878787878,11.575757575757574,-8.54545454545454,20.484848484848488,27.242424242424242,18.030303030303028,17.393939393939394,18.848484848484848,18.575757575757578,17.909090909090907,24.121212121212118,22.78787878787879,22.545454545454543,25.78787878787879,29.696969696969692,23.84848484848485,25.06060606060606,22.030303030303035,26.24242424242424,26.39393939393939,23.939393939393934,36.030303030303024,36.484848484848484
22,-0.0625,T2,1,16.666666666666668,18.06060606060606,9.06060606060606,14.666666666666666,7.121212121212121,13.303030303030303,14.454545454545453,22.3030303030303,21.333333333333332,10.515151515151517,4.848484848484849,5.81818181818182,16.03030303030303,25.09090909090909,20.60606060606061,13.424242424242424,10.96969696969697,5.909090909090911,6.999999999999999,10.515151515151514,15.484848484848484,10.545454545454541,1.4848484848484838,-6.757575757575758,20.515151515151523,18.939393939393934,4.545454545454546,-14.333333333333332,-16.060606060606066,26.60606060606061,24.696969696969692,-2.3636363636363638,10.515151515151516,8.757575757575758,1.0303030303030298,2.7272727272727257,-4.484848484848482,-8.121212121212121,28.878787878787875,0.8484848484848498,21.545454545454543,21.787878787878785,35.57575757575758,-24.545454545454543,17.484848484848488,2.2424242424242418,8.03030303030303,6.393939393939393,4.848484848484848,-9.424242424242426,-11.090909090909092,-11.87878787878788,-12.212121212121213,-10.454545454545457,-2.21212121212121,4.696969696969695,-2.1515151515151487,-15.939393939393938,-18.96969696969696,-17.757575757575758,25.39393939393939,8.939393939393934,17.030303030303028,15.484848484848484
23,-0.05625,T2,1,27.666666666666668,14.06060606060606,-5.939393939393939,-9.333333333333332,-22.878787878787875,-22.696969696969695,-18.545454545454547,19.3030303030303,10.333333333333332,-13.484848484848484,-26.151515151515152,-38.18181818181818,-28.969696969696965,-21.909090909090907,10.606060606060607,-4.575757575757574,-18.03030303030303,-26.09090909090909,-32.99999999999999,-31.484848484848488,-28.515151515151512,29.545454545454543,9.48484848484848,-1.7575757575757578,21.51515151515152,17.939393939393934,-4.454545454545455,-12.333333333333332,-13.060606060606062,22.60606060606061,11.696969696969692,-22.363636363636363,-3.484848484848485,-10.24242424242424,-21.96969696969697,-18.272727272727273,-35.484848484848484,-20.12121212121212,17.87878787878788,-33.15151515151515,31.545454545454543,-35.21212121212121,17.57575757575757,9.454545454545457,19.484848484848488,-16.757575757575758,10.03030303030303,0.3939393939393941,-5.151515151515152,-16.424242424242422,-22.09090909090909,-27.87878787878788,-29.21212121212121,-31.45454545454545,-26.212121212121207,0.6969696969696957,-3.151515151515149,-16.93939393939394,-32.96969696969696,-34.757575757575765,4.393939393939393,-20.06060606060606,-26.969696969696976,-20.515151515151512
24,-0.05,T2,1,18.666666666666668,7.0606060606060606,-8.93939393939394,-15.33333333333333,-23.87878787878788,-28.696969696969695,-26.545454545454543,14.303030303030303,10.333333333333332,-8.484848484848484,-14.151515151515152,-26.18181818181818,-26.96969696969697,-27.90909090909091,12.606060606060607,2.4242424242424243,-6.030303030303028,-9.090909090909092,-17.0,-18.484848484848488,-23.515151515151516,3.5454545454545396,9.48484848484848,12.24242424242424,12.515151515151517,11.939393939393932,3.545454545454545,4.666666666666667,3.9393939393939372,22.60606060606061,17.696969696969695,0.6363636363636365,7.515151515151515,7.757575757575758,1.0303030303030298,0.7272727272727265,-2.484848484848481,-3.1212121212121215,34.87878787878788,-13.151515151515149,36.54545454545455,1.7878787878787887,2.5757575757575735,10.454545454545455,31.484848484848488,0.24242424242424243,25.030303030303028,21.393939393939394,21.848484848484844,21.575757575757574,16.909090909090907,7.121212121212118,2.7878787878787867,-8.454545454545455,-14.212121212121207,24.696969696969692,24.84848484848485,21.06060606060606,-4.969696969696965,-19.757575757575758,4.393939393939393,-16.060606060606066,-38.96969696969697,-21.515151515151516
25,-0.04375,T2,1,36.666666666666664,31.060606060606055,21.06060606060606,18.666666666666668,15.121212121212123,12.303030303030301,14.454545454545453,32.3030303030303,31.33333333333333,25.515151515151516,29.848484848484848,25.81818181818182,12.030303030303031,16.09090909090909,26.606060606060606,22.424242424242426,26.96969696969697,28.90909090909091,19.0,10.515151515151514,2.4848484848484835,8.54545454545454,13.48484848484848,17.24242424242424,24.51515151515152,23.93939393939393,12.545454545454545,14.666666666666668,9.939393939393936,23.60606060606061,37.696969696969695,7.636363636363637,16.515151515151512,9.757575757575758,10.03030303030303,9.727272727272725,10.515151515151517,5.87878787878788,25.87878787878788,-5.151515151515147,10.545454545454545,17.78787878787879,15.575757575757574,4.454545454545458,19.484848484848488,-28.757575757575758,18.030303030303028,18.39393939393939,16.848484848484844,20.575757575757574,17.909090909090907,0.12121212121211826,-9.212121212121211,-24.45454545454545,-37.21212121212121,14.696969696969694,15.848484848484848,14.06060606060606,-19.96969696969697,-42.75757575757576,11.393939393939394,-0.06060606060606167,-26.969696969696976,-12.515151515151514
26,-0.0375,T2,1,13.666666666666668,14.06060606060606,7.0606060606060606,2.666666666666668,-4.878787878787878,-7.696969696969696,-7.545454545454546,10.303030303030305,13.333333333333332,12.515151515151516,15.848484848484848,4.818181818181821,-8.969696969696967,-8.909090909090908,11.606060606060607,8.424242424242424,12.96969696969697,13.90909090909091,-1.0000000000000007,-13.484848484848488,-23.515151515151516,-1.4545454545454597,-7.515151515151518,-13.757575757575754,8.515151515151523,8.939393939393934,-12.454545454545455,-8.333333333333332,-14.060606060606062,3.606060606060608,18.696969696969692,-11.363636363636363,-6.484848484848485,-15.24242424242424,-14.969696969696969,-12.272727272727275,-11.484848484848483,-7.121212121212121,-0.12121212121212334,-9.151515151515149,-5.4545454545454515,12.787878787878789,0.5757575757575757,-7.545454545454542,9.484848484848488,-16.757575757575758,9.03030303030303,14.393939393939393,13.848484848484848,17.575757575757574,12.909090909090908,-2.878787878787882,-13.212121212121213,-19.45454545454545,-25.21212121212121,18.696969696969692,20.848484848484848,17.06060606060606,-14.969696969696967,-30.75757575757576,17.393939393939394,8.939393939393934,-18.96969696969697,-9.515151515151516
27,-0.03125,T2,1,4.666666666666667,9.06060606060606,5.0606060606060606,-0.3333333333333324,-7.878787878787878,-4.696969696969697,4.454545454545455,11.303030303030303,9.33333333333333,10.515151515151517,11.84848484848485,3.8181818181818206,2.030303030303031,16.09090909090909,15.606060606060609,13.424242424242424,14.969696969696969,13.90909090909091,5.999999999999999,0.515151515151514,3.484848484848483,13.545454545454543,10.484848484848479,13.24242424242424,11.515151515151521,8.939393939393934,-2.454545454545455,4.666666666666667,11.939393939393938,7.606060606060611,28.696969696969695,-2.3636363636363638,2.5151515151515142,-4.24242424242424,-4.969696969696971,-2.272727272727274,6.515151515151514,16.878787878787875,4.87878787878788,12.84848484848485,8.545454545454547,26.78787878787879,9.575757575757574,-8.54545454545454,16.484848484848488,3.242424242424242,16.03030303030303,17.393939393939394,15.848484848484848,15.575757575757574,5.909090909090909,-1.8787878787878813,-6.212121212121213,-8.454545454545455,-9.212121212121207,19.696969696969692,18.84848484848485,12.060606060606059,-6.969696969696966,-15.757575757575756,22.393939393939394,15.939393939393934,-6.96969696969697,2.4848484848484844
28,-0.025,T2,1,-3.3333333333333326,-4.939393939393938,-3.939393939393939,-5.333333333333332,-5.878787878787879,-2.696969696969697,9.454545454545455,-2.696969696969696,-5.666666666666668,-5.484848484848483,-7.1515151515151505,-5.181818181818178,-6.969696969696969,3.090909090909091,1.606060606060607,-3.5757575757575757,-2.0303030303030285,-6.0909090909090855,-9.0,-12.484848484848486,-11.515151515151516,13.545454545454543,13.48484848484848,19.242424242424242,9.51515151515152,7.939393939393936,-11.454545454545453,2.666666666666668,9.939393939393936,0.60606060606061,12.696969696969695,-14.363636363636363,-17.484848484848488,-21.242424242424242,-13.969696969696969,-14.272727272727272,-0.4848484848484866,3.878787878787879,-8.121212121212121,-19.15151515151515,5.545454545454548,-54.212121212121204,6.575757575757576,1.4545454545454597,1.4848484848484906,-20.757575757575754,-1.9696969696969704,-11.606060606060606,-12.151515151515152,-12.424242424242424,-19.09090909090909,-24.878787878787882,-29.21212121212121,-30.454545454545453,-26.212121212121207,-10.303030303030308,-13.151515151515152,-17.939393939393938,-25.969696969696965,-38.75757575757575,6.3939393939393945,0.9393939393939356,-13.96969696969697,-3.5151515151515156
29,-0.01875,T2,1,-20.333333333333336,-27.939393939393934,-27.939393939393938,-31.333333333333332,-30.87878787878788,-24.696969696969695,-24.545454545454547,-18.696969696969695,-27.666666666666668,-23.484848484848484,-22.15151515151515,-17.181818181818176,-27.96969696969697,-37.90909090909091,-23.39393939393939,-28.575757575757574,-23.03030303030303,-19.09090909090909,-24.0,-26.484848484848484,-33.515151515151516,-8.45454545454546,-4.51515151515152,0.2424242424242433,-4.484848484848482,-6.060606060606065,-32.45454545454545,-13.333333333333334,-6.060606060606062,-9.39393939393939,-4.303030303030304,-24.363636363636363,-36.484848484848484,-39.24242424242424,-31.96969696969697,-28.272727272727273,-11.484848484848483,-12.121212121212121,-5.121212121212123,-35.15151515151514,2.545454545454546,-40.21212121212121,4.575757575757574,-33.54545454545455,-8.515151515151508,-3.7575757575757582,-11.969696969696969,-20.60606060606061,-22.151515151515152,-19.42424242424242,-13.090909090909086,-18.87878787878788,-23.212121212121207,-25.454545454545453,-21.212121212121207,-13.303030303030306,-15.151515151515147,-13.939393939393936,-17.969696969696965,-30.75757575757576,-11.606060606060606,-12.060606060606062,-22.969696969696972,-16.515151515151516
30,-0.0125,T2,1,-3.3333333333333326,-10.939393939393938,-9.939393939393938,-11.33333333333333,-9.878787878787877,-8.696969696969697,-8.545454545454545,9.303030303030303,-5.666666666666668,2.515151515151517,10.84848484848485,9.81818181818182,-4.969696969696969,-11.909090909090908,-1.3939393939393914,-2.5757575757575752,3.9696969696969697,10.90909090909091,6.999999999999999,0.515151515151514,-7.5151515151515165,13.545454545454543,18.48484848484848,26.242424242424242,19.51515151515152,17.939393939393934,-1.4545454545454546,14.666666666666668,34.93939393939394,11.606060606060613,27.696969696969695,1.6363636363636367,-3.484848484848485,-5.242424242424241,0.03030303030302914,4.727272727272727,16.515151515151512,13.878787878787879,18.87878787878788,-8.151515151515145,15.545454545454547,-3.2121212121212115,5.575757575757575,-6.545454545454545,19.484848484848488,0.24242424242424243,24.03030303030303,10.393939393939393,1.848484848484848,6.575757575757575,12.909090909090908,7.121212121212118,2.7878787878787867,-6.454545454545454,-13.21212121212121,9.696969696969694,7.84848484848485,9.06060606060606,5.030303030303034,-10.757575757575756,-4.6060606060606055,-5.060606060606061,-11.969696969696969,-14.515151515151516
31,-0.00625,T2,1,7.666666666666667,5.060606060606061,10.06060606060606,10.666666666666668,11.12121212121212,7.303030303030303,4.454545454545455,17.3030303030303,10.333333333333332,17.515151515151516,30.848484848484848,15.818181818181822,10.03030303030303,3.090909090909091,15.606060606060609,14.424242424242424,21.96969696969697,22.90909090909091,24.999999999999996,15.515151515151512,1.4848484848484838,27.54545454545454,19.48484848484848,26.242424242424242,23.51515151515152,23.93939393939393,-1.4545454545454546,13.666666666666668,22.939393939393934,3.606060606060608,27.696969696969695,-1.3636363636363633,-6.484848484848485,-6.242424242424241,-0.9696969696969706,-0.2727272727272741,11.515151515151514,14.878787878787875,-3.1212121212121215,-7.151515151515148,-0.45454545454545237,13.787878787878789,14.575757575757574,3.454545454545454,25.484848484848488,1.2424242424242422,22.03030303030303,19.39393939393939,13.848484848484848,17.575757575757574,23.909090909090907,22.121212121212118,18.787878787878785,10.545454545454543,-2.21212121212121,23.696969696969692,25.848484848484848,26.06060606060606,27.030303030303035,19.242424242424242,16.393939393939394,15.939393939393934,14.03030303030303,5.4848484848484835
32,0.0,T2,1,-14.33333333333333,-9.939393939393938,1.0606060606060606,9.666666666666666,5.121212121212121,9.303030303030303,8.454545454545457,-6.696969696969696,-2.666666666666666,15.515151515151516,28.848484848484848,19.81818181818182,24.03030303030303,22.090909090909093,12.606060606060607,14.424242424242424,27.96969696969697,27.90909090909091,34.0,31.515151515151512,22.48484848484848,-5.454545454545455,3.484848484848478,6.242424242424241,-9.48484848484848,-9.060606060606071,-13.454545454545455,-1.333333333333333,-0.06060606060606336,-15.393939393939386,8.696969696969694,-4.363636363636364,-14.484848484848486,-10.24242424242424,-6.96969696969697,-6.272727272727274,11.515151515151514,15.878787878787879,-10.121212121212123,2.848484848484851,11.545454545454547,38.78787878787878,17.57575757575757,-8.54545454545454,28.484848484848484,14.242424242424242,27.03030303030303,30.39393939393939,30.848484848484848,30.575757575757578,37.90909090909091,39.12121212121212,36.78787878787878,29.545454545454543,14.787878787878789,33.69696969696969,39.84848484848485,41.060606060606055,41.03030303030303,32.242424242424235,41.3939393939394,41.93939393939394,45.030303030303024,36.484848484848484
33,0.00625,T2,1,-5.333333333333332,-0.9393939393939389,12.06060606060606,29.666666666666664,19.12121212121212,27.303030303030305,26.454545454545453,14.303030303030303,14.333333333333332,30.515151515151516,41.84848484848485,41.81818181818182,41.030303030303024,38.09090909090909,26.606060606060606,25.424242424242422,41.96969696969697,41.90909090909091,42.0,42.51515151515151,30.484848484848484,7.545454545454542,2.484848484848481,2.242424242424241,11.515151515151521,9.93939393939393,-2.454545454545455,5.666666666666666,1.939393939393938,5.606060606060609,24.696969696969692,6.636363636363636,5.515151515151515,6.757575757575758,9.03030303030303,12.727272727272727,20.515151515151516,16.878787878787875,18.87878787878788,2.848484848484851,39.54545454545454,-24.21212121212121,10.575757575757574,-7.545454545454542,28.484848484848484,-1.7575757575757578,22.03030303030303,28.39393939393939,27.848484848484848,29.57575757575757,35.90909090909091,31.121212121212118,25.787878787878785,12.545454545454543,-4.212121212121208,18.696969696969692,25.848484848484848,34.06060606060606,23.030303030303035,7.24242424242424,45.39393939393939,49.93939393939393,55.030303030303024,48.484848484848484
34,0.0125,T2,1,17.666666666666668,20.06060606060606,27.060606060606062,30.666666666666668,26.12121212121212,27.303030303030305,18.454545454545457,33.303030303030305,31.33333333333333,39.515151515151516,45.84848484848485,47.81818181818181,27.030303030303035,6.090909090909091,28.606060606060606,28.424242424242422,40.96969696969697,43.909090909090914,34.0,29.515151515151512,7.4848484848484835,22.54545454545454,13.48484848484848,4.242424242424242,34.515151515151516,34.93939393939394,16.545454545454543,16.666666666666668,1.939393939393938,20.60606060606061,50.69696969696969,28.636363636363633,31.515151515151512,26.757575757575758,27.03030303030303,28.727272727272727,26.515151515151512,15.878787878787879,29.87878787878788,-18.15151515151515,28.545454545454543,-30.21212121212121,22.57575757575757,10.454545454545455,37.484848484848484,-11.757575757575758,29.03030303030303,33.3939393939394,33.848484848484844,34.57575757575757,46.90909090909091,37.12121212121212,28.787878787878785,13.545454545454543,0.7878787878787915,27.696969696969695,32.84848484848485,45.060606060606055,31.03030303030303,15.242424242424239,37.39393939393939,43.93939393939394,42.03030303030303,31.48484848484848
35,0.01875,T2,1,42.66666666666667,54.06060606060606,58.06060606060606,57.666666666666664,55.12121212121212,53.3030303030303,37.454545454545446,58.303030303030305,57.333333333333336,71.51515151515152,78.84848484848483,79.81818181818183,56.030303030303024,29.090909090909093,46.6060606060606,51.424242424242415,70.96969696969697,76.9090909090909,70.0,62.51515151515151,38.484848484848484,57.54545454545455,52.484848484848484,48.24242424242424,70.51515151515152,70.93939393939392,58.54545454545454,53.666666666666664,34.93939393939394,43.60606060606061,83.69696969696969,65.63636363636364,73.51515151515152,69.75757575757575,68.03030303030303,66.72727272727272,60.515151515151516,46.878787878787875,45.878787878787875,23.848484848484855,49.54545454545454,69.78787878787878,34.57575757575757,-0.5454545454545414,46.484848484848484,35.242424242424235,39.03030303030303,48.39393939393939,51.84848484848485,58.57575757575757,78.9090909090909,75.12121212121211,68.78787878787878,50.54545454545455,33.78787878787879,35.696969696969695,44.84848484848485,72.06060606060606,69.03030303030303,43.242424242424235,39.39393939393939,50.93939393939393,43.030303030303024,18.484848484848484
36,0.025,T2,1,55.66666666666666,74.06060606060606,85.06060606060605,91.66666666666667,83.12121212121211,85.3030303030303,67.45454545454544,67.3030303030303,66.33333333333333,90.51515151515152,101.84848484848484,105.8181818181818,84.03030303030303,67.0909090909091,48.6060606060606,54.42424242424242,83.96969696969695,94.9090909090909,89.0,88.51515151515152,68.48484848484848,50.54545454545454,63.48484848484848,62.242424242424235,53.515151515151516,53.93939393939393,72.54545454545455,59.666666666666664,43.93939393939394,31.606060606060613,74.69696969696969,71.63636363636363,79.51515151515152,79.75757575757575,79.03030303030303,74.72727272727272,63.515151515151516,40.878787878787875,45.878787878787875,29.84848484848485,54.54545454545454,31.78787878787879,15.575757575757574,-19.545454545454543,32.484848484848484,22.242424242424242,27.03030303030303,32.39393939393939,43.848484848484844,55.57575757575757,75.9090909090909,82.12121212121211,73.78787878787878,55.54545454545455,30.787878787878785,17.696969696969695,31.84848484848485,78.06060606060606,84.03030303030303,61.242424242424235,42.39393939393939,64.93939393939394,64.03030303030302,25.484848484848484
37,0.03125,T2,1,38.666666666666664,59.06060606060606,73.06060606060606,79.66666666666667,72.12121212121211,65.3030303030303,47.454545454545446,42.3030303030303,43.333333333333336,67.5151515151515,75.84848484848484,82.81818181818181,64.03030303030303,44.09090909090909,19.60606060606061,30.424242424242422,61.96969696969696,70.9090909090909,70.99999999999999,71.5151515151515,52.48484848484848,35.54545454545454,45.48484848484848,36.24242424242424,30.515151515151523,31.93939393939393,59.54545454545454,41.666666666666664,20.93939393939394,11.606060606060613,52.696969696969695,58.63636363636363,64.51515151515152,67.75757575757575,64.03030303030303,56.72727272727273,42.51515151515151,12.87878787878788,8.878787878787879,8.848484848484855,9.545454545454547,21.787878787878785,-5.424242424242427,-32.54545454545454,8.484848484848492,31.242424242424242,8.03030303030303,18.39393939393939,38.848484848484844,52.57575757575758,77.9090909090909,91.12121212121211,81.7878787878788,69.54545454545453,50.78787878787878,13.696969696969694,32.84848484848485,93.06060606060606,104.03030303030303,102.24242424242424,44.39393939393939,87.93939393939394,105.03030303030302,53.48484848484848
38,0.0375,T2,1,30.66666666666666,58.06060606060606,74.06060606060606,82.66666666666667,74.12121212121212,65.3030303030303,44.45454545454545,41.303030303030305,48.333333333333336,75.51515151515152,89.84848484848484,93.81818181818181,69.03030303030303,52.09090909090909,21.606060606060606,40.42424242424242,68.96969696969697,81.9090909090909,84.0,80.51515151515152,65.48484848484848,44.54545454545454,50.48484848484848,46.24242424242424,40.515151515151516,41.93939393939393,65.54545454545455,51.666666666666664,28.939393939393938,20.60606060606061,55.69696969696969,59.63636363636364,69.51515151515152,74.75757575757575,69.03030303030303,63.72727272727273,54.515151515151516,17.87878787878788,14.878787878787879,15.848484848484848,4.545454545454548,39.78787878787879,20.575757575757574,3.454545454545454,14.484848484848488,37.242424242424235,22.03030303030303,27.393939393939394,35.848484848484844,53.57575757575757,71.9090909090909,76.12121212121212,65.78787878787878,54.54545454545455,36.78787878787879,19.696969696969692,33.84848484848485,76.06060606060605,75.03030303030303,52.242424242424235,45.39393939393939,87.93939393939394,103.03030303030302,48.484848484848484
39,0.04375,T2,1,36.666666666666664,50.060606060606055,59.06060606060606,70.66666666666667,63.12121212121211,60.303030303030305,46.454545454545446,32.3030303030303,39.33333333333333,54.515151515151516,60.84848484848485,76.81818181818183,55.030303030303024,51.09090909090909,12.606060606060607,25.424242424242422,44.96969696969697,48.909090909090914,51.0,50.515151515151516,46.48484848484848,54.54545454545454,51.48484848484848,49.242424242424235,50.51515151515152,49.93939393939393,52.54545454545454,46.666666666666664,35.93939393939394,17.60606060606061,48.69696969696969,43.63636363636363,46.51515151515151,50.75757575757576,51.030303030303024,45.72727272727272,46.51515151515151,20.87878787878788,10.878787878787879,9.848484848484851,-18.45454545454545,29.78787878787879,-10.424242424242427,-7.545454545454542,-6.515151515151514,20.242424242424242,-11.969696969696969,-5.606060606060606,4.848484848484848,16.575757575757574,27.90909090909091,35.12121212121212,30.787878787878785,19.545454545454543,12.78787878787879,-17.3030303030303,-3.151515151515149,32.06060606060606,37.03030303030303,20.24242424242424,22.393939393939394,47.93939393939393,57.030303030303024,-1.5151515151515162
40,0.05,T2,1,0.6666666666666682,11.06060606060606,16.060606060606062,34.666666666666664,29.12121212121212,30.3030303030303,26.454545454545453,-12.696969696969695,3.3333333333333326,16.515151515151516,21.848484848484848,49.81818181818182,32.03030303030303,33.090909090909086,-23.39393939393939,-7.575757575757574,10.96969696969697,18.90909090909091,27.999999999999996,31.515151515151512,27.484848484848484,18.545454545454543,24.48484848484848,26.242424242424242,20.515151515151523,18.939393939393934,15.545454545454547,18.666666666666668,15.939393939393934,-14.39393939393939,14.696969696969697,14.636363636363635,8.515151515151514,14.757575757575758,20.030303030303028,15.727272727272725,22.515151515151516,-4.12121212121212,-36.121212121212125,4.848484848484852,-28.454545454545457,21.787878787878785,-20.424242424242426,-18.545454545454543,-20.515151515151516,7.242424242424242,-30.96969696969697,-19.606060606060606,-3.1515151515151527,9.575757575757574,20.90909090909091,28.12121212121212,21.787878787878785,9.545454545454543,8.787878787878789,-17.3030303030303,-5.1515151515151505,26.06060606060606,29.03030303030303,17.24242424242424,2.3939393939393954,19.939393939393938,29.030303030303028,-24.515151515151516
41,0.05625,T2,1,-22.33333333333333,-3.939393939393939,5.0606060606060606,31.666666666666668,19.12121212121212,22.303030303030305,11.454545454545455,-27.696969696969695,-8.666666666666666,17.515151515151516,36.84848484848485,61.81818181818182,25.03030303030303,10.09090909090909,-25.39393939393939,-11.575757575757574,14.969696969696969,25.90909090909091,32.0,26.515151515151512,10.484848484848484,-4.454545454545458,14.48484848484848,14.242424242424242,-0.4848484848484798,-0.06060606060606844,8.545454545454545,10.666666666666666,3.9393939393939372,-14.39393939393939,16.696969696969692,9.636363636363637,13.515151515151516,20.757575757575754,24.03030303030303,21.727272727272727,15.515151515151516,-19.12121212121212,-25.12121212121212,-7.151515151515148,-8.45454545454545,-13.212121212121211,0.5757575757575757,3.454545454545454,-11.515151515151514,7.242424242424242,-15.969696969696972,-13.606060606060607,-5.151515151515152,9.575757575757574,22.90909090909091,24.121212121212118,17.78787878787879,3.545454545454545,0.7878787878787915,-9.303030303030303,-3.151515151515149,18.06060606060606,20.03030303030303,4.242424242424239,-5.606060606060603,9.939393939393938,15.03030303030303,-30.515151515151512
42,0.0625,T2,1,1.6666666666666672,14.06060606060606,26.06060606060606,52.666666666666664,34.121212121212125,28.3030303030303,10.454545454545451,-8.696969696969697,1.333333333333333,32.515151515151516,47.848484848484844,60.81818181818182,21.03030303030303,9.09090909090909,-13.393939393939391,-1.5757575757575746,20.969696969696972,28.90909090909091,29.999999999999996,26.515151515151512,13.484848484848484,23.545454545454543,31.48484848484848,26.242424242424242,23.51515151515152,22.939393939393934,29.545454545454543,23.66666666666666,7.939393939393938,4.606060606060613,37.696969696969695,22.636363636363637,24.515151515151512,30.757575757575754,32.03030303030303,25.727272727272723,14.51515151515152,-6.12121212121212,-2.1212121212121176,-17.15151515151515,-0.45454545454545237,-10.212121212121211,-5.424242424242427,-0.5454545454545414,-0.5151515151515106,11.242424242424242,-0.9696969696969664,-0.6060606060606065,3.848484848484848,13.575757575757574,26.90909090909091,27.121212121212114,23.787878787878785,13.545454545454543,9.78787878787879,0.6969696969696957,9.84848484848485,27.060606060606062,34.03030303030304,26.24242424242424,2.3939393939393954,19.939393939393938,23.030303030303028,-19.515151515151516
43,0.06875,T2,1,1.6666666666666672,6.0606060606060606,17.060606060606062,35.66666666666667,21.12121212121212,18.3030303030303,3.454545454545454,2.3030303030303036,4.333333333333331,25.515151515151516,31.84848484848485,44.81818181818182,19.03030303030303,12.090909090909092,-2.393939393939392,4.424242424242425,22.96969696969697,23.909090909090907,27.0,28.515151515151512,16.48484848484848,20.545454545454543,21.48484848484848,17.24242424242424,24.51515151515152,23.93939393939393,24.545454545454543,9.666666666666664,-11.060606060606062,3.606060606060608,29.696969696969692,13.636363636363635,17.515151515151516,22.757575757575758,26.030303030303028,20.727272727272723,6.515151515151514,-21.121212121212118,1.8787878787878778,-19.15151515151515,17.545454545454543,3.787878787878788,-4.424242424242424,-15.54545454545454,7.484848484848487,8.24242424242424,14.03030303030303,17.393939393939394,25.848484848484848,33.57575757575758,41.90909090909091,46.12121212121212,41.78787878787878,29.545454545454543,24.78787878787879,18.696969696969692,29.84848484848485,49.06060606060606,57.03030303030303,42.242424242424235,26.39393939393939,44.93939393939394,44.03030303030303,4.4848484848484835
44,0.075,T2,1,8.666666666666668,8.06060606060606,19.06060606060606,32.666666666666664,27.121212121212118,30.3030303030303,12.454545454545453,29.3030303030303,26.333333333333332,36.51515151515151,42.848484848484844,65.81818181818181,42.03030303030303,31.090909090909093,24.606060606060606,33.42424242424242,38.96969696969697,36.90909090909091,44.99999999999999,48.51515151515151,32.484848484848484,31.545454545454543,27.484848484848477,14.242424242424242,31.51515151515152,29.93939393939393,29.545454545454543,12.666666666666666,-12.060606060606062,8.606060606060607,21.696969696969695,14.636363636363635,19.515151515151512,26.757575757575758,29.03030303030303,25.727272727272723,17.515151515151516,-23.12121212121212,13.878787878787879,-18.15151515151515,13.545454545454545,-15.212121212121211,9.575757575757574,-20.545454545454543,7.484848484848487,1.2424242424242422,14.03030303030303,22.393939393939394,35.848484848484844,40.57575757575758,53.909090909090914,56.12121212121212,48.78787878787879,32.54545454545454,17.787878787878793,17.696969696969695,27.848484848484848,56.060606060606055,59.03030303030303,40.242424242424235,40.39393939393939,59.93939393939393,55.030303030303024,15.484848484848484
45,0.08125,T2,1,2.666666666666668,8.06060606060606,21.06060606060606,32.666666666666664,31.121212121212118,31.303030303030297,13.454545454545457,15.303030303030303,21.333333333333332,37.515151515151516,46.84848484848485,66.81818181818181,36.030303030303024,21.090909090909093,15.606060606060609,29.424242424242426,38.96969696969697,39.909090909090914,43.0,41.51515151515151,22.48484848484848,38.54545454545455,27.484848484848477,19.242424242424242,25.515151515151523,23.93939393939393,34.54545454545454,13.666666666666668,2.939393939393937,-4.39393939393939,11.696969696969692,22.636363636363637,24.515151515151512,35.75757575757575,35.03030303030303,28.727272727272727,17.515151515151516,-23.12121212121212,-4.121212121212119,-19.15151515151515,6.545454545454545,-22.21212121212121,-3.4242424242424265,-33.54545454545455,6.48484848484849,11.242424242424242,7.030303030303031,16.393939393939394,29.84848484848485,36.57575757575757,52.9090909090909,53.12121212121212,45.78787878787878,30.545454545454547,14.787878787878789,12.696969696969694,23.84848484848485,53.06060606060606,56.03030303030303,33.242424242424235,40.39393939393939,59.93939393939393,55.030303030303024,10.484848484848484
46,0.0875,T2,1,8.666666666666668,26.06060606060606,39.06060606060606,51.666666666666664,48.121212121212125,40.3030303030303,21.454545454545453,28.3030303030303,28.333333333333332,47.515151515151516,59.84848484848485,70.81818181818181,43.030303030303024,32.09090909090909,14.606060606060607,28.424242424242422,45.96969696969697,49.90909090909091,52.0,47.51515151515151,37.484848484848484,26.545454545454543,45.48484848484848,43.24242424242424,30.515151515151523,30.939393939393934,61.54545454545455,49.666666666666664,28.939393939393938,18.60606060606061,44.696969696969695,48.63636363636363,63.515151515151516,72.75757575757575,67.03030303030303,60.72727272727272,47.51515151515151,16.878787878787875,37.878787878787875,12.84848484848485,33.54545454545455,69.78787878787878,-2.424242424242426,-1.5454545454545454,11.48484848484849,29.242424242424242,22.03030303030303,28.39393939393939,41.84848484848485,51.57575757575757,65.9090909090909,68.12121212121212,61.78787878787878,43.54545454545454,25.78787878787879,29.696969696969692,41.84848484848485,69.06060606060606,64.03030303030303,37.242424242424235,44.39393939393939,63.93939393939394,52.03030303030303,16.48484848484848
47,0.09375,T2,1,55.66666666666666,68.06060606060606,76.06060606060606,82.66666666666667,74.12121212121212,66.3030303030303,50.45454545454545,58.303030303030305,51.33333333333333,67.5151515151515,75.84848484848484,93.81818181818181,63.03030303030304,53.09090909090909,24.606060606060606,35.42424242424242,52.96969696969696,57.909090909090914,60.0,58.515151515151516,43.484848484848484,52.54545454545454,71.48484848484848,63.242424242424235,55.51515151515152,55.93939393939393,74.54545454545453,64.66666666666666,41.93939393939394,35.60606060606061,59.696969696969695,53.63636363636363,69.51515151515152,70.75757575757576,65.03030303030303,59.72727272727273,51.51515151515151,15.878787878787879,20.87878787878788,-0.15151515151514738,-6.454545454545456,11.787878787878787,5.575757575757575,0.45454545454545575,13.484848484848492,1.2424242424242422,17.03030303030303,12.393939393939393,20.848484848484848,28.575757575757574,41.90909090909091,43.12121212121212,34.78787878787879,19.545454545454543,9.78787878787879,11.696969696969694,20.848484848484848,46.060606060606055,42.03030303030303,28.24242424242424,44.39393939393939,65.93939393939392,49.03030303030303,39.48484848484848
48,0.1,T2,1,14.666666666666666,30.06060606060606,36.060606060606055,45.666666666666664,36.12121212121212,27.303030303030305,14.454545454545453,4.303030303030303,11.333333333333332,24.51515151515152,30.848484848484848,57.81818181818181,21.03030303030303,12.090909090909092,-13.393939393939391,-3.5757575757575757,13.96969696969697,16.90909090909091,22.0,23.515151515151516,10.484848484848484,43.54545454545454,49.48484848484848,41.24242424242424,41.515151515151516,40.93939393939393,45.54545454545455,32.666666666666664,9.939393939393936,10.606060606060609,30.696969696969692,27.636363636363637,37.515151515151516,38.75757575757576,35.03030303030303,30.727272727272723,21.515151515151512,-2.121212121212121,-7.1212121212121176,-18.15151515151515,-1.454545454545453,12.787878787878789,9.575757575757574,-29.545454545454543,0.4848484848484866,4.242424242424242,-7.969696969696967,-6.606060606060606,-1.1515151515151523,2.5757575757575752,17.909090909090907,19.121212121212118,15.787878787878787,8.545454545454545,9.78787878787879,-2.3030303030303063,1.8484848484848504,22.06060606060606,26.03030303030303,15.242424242424239,28.393939393939394,50.93939393939393,32.03030303030303,27.48484848484848
49,0.10625,T2,1,6.666666666666668,20.06060606060606,18.06060606060606,31.666666666666668,23.121212121212125,18.3030303030303,2.4545454545454537,9.303030303030303,5.333333333333332,8.515151515151516,11.84848484848485,42.81818181818182,15.03030303030303,14.090909090909092,-19.393939393939387,-12.575757575757574,-1.0303030303030298,-1.0909090909090897,8.0,13.515151515151514,10.484848484848484,50.54545454545454,45.48484848484848,35.24242424242424,45.515151515151516,42.93939393939393,30.545454545454547,15.666666666666664,-0.06060606060606336,9.606060606060613,25.696969696969692,7.636363636363637,19.515151515151512,20.757575757575754,19.030303030303028,15.727272727272725,3.5151515151515156,-20.12121212121212,-0.12121212121212334,-22.151515151515145,6.545454545454545,0.7878787878787882,1.5757575757575728,-14.545454545454543,-7.515151515151511,10.242424242424242,-14.969696969696967,-15.606060606060609,-17.151515151515152,-8.424242424242424,2.909090909090909,16.121212121212118,16.78787878787879,10.545454545454543,18.787878787878793,-1.3030303030303056,1.8484848484848504,19.06060606060606,33.03030303030303,19.242424242424242,7.3939393939393945,24.939393939393938,10.03030303030303,-10.515151515151517
50,0.1125,T2,1,-1.333333333333333,4.0606060606060606,-3.939393939393939,6.666666666666668,0.12121212121212165,2.3030303030303028,-7.545454545454546,3.303030303030303,-9.666666666666666,-6.4848484848484835,-5.151515151515151,33.81818181818181,9.03030303030303,3.090909090909091,-22.393939393939394,-17.57575757575757,-12.030303030303028,-7.09090909090909,5.0,13.515151515151514,11.484848484848483,29.545454545454543,29.48484848484848,17.24242424242424,22.515151515151516,21.93939393939393,8.545454545454545,1.6666666666666672,-11.060606060606062,-10.393939393939386,1.6969696969696928,-5.363636363636362,-3.484848484848485,-1.2424242424242422,1.0303030303030298,-3.2727272727272743,-6.4848484848484835,-30.12121212121212,-15.121212121212123,-28.15151515151515,-12.454545454545453,-33.21212121212121,-22.42424242424243,-34.54545454545454,-15.515151515151516,27.242424242424242,-10.969696969696965,-10.606060606060606,-12.151515151515152,-0.4242424242424249,8.90909090909091,26.121212121212118,27.787878787878785,19.545454545454543,20.78787878787879,10.696969696969695,9.84848484848485,26.06060606060606,43.03030303030303,28.24242424242424,6.3939393939393945,20.939393939393938,17.030303030303028,-16.515151515151516
51,0.11875,T2,1,-18.333333333333332,-5.939393939393939,-6.9393939393939394,15.666666666666666,8.121212121212121,9.303030303030303,1.4545454545454564,-6.696969696969696,-18.666666666666664,-4.484848484848482,5.848484848484849,44.81818181818182,11.030303030303031,12.090909090909092,-29.393939393939387,-22.575757575757578,-9.03030303030303,-2.0909090909090904,13.0,20.515151515151512,15.484848484848484,18.545454545454543,30.48484848484848,24.242424242424242,7.515151515151518,6.939393939393932,17.545454545454543,14.666666666666668,-6.060606060606062,-19.393939393939387,-2.3030303030303028,5.636363636363637,6.515151515151514,14.757575757575758,15.03030303030303,9.727272727272725,11.515151515151514,-11.12121212121212,-21.121212121212118,-21.151515151515145,-28.454545454545457,-10.212121212121211,-29.424242424242422,-15.54545454545454,-30.515151515151516,6.242424242424241,-20.969696969696972,-17.606060606060602,-16.15151515151515,-7.424242424242424,3.90909090909091,18.121212121212118,21.787878787878785,11.545454545454545,4.787878787878791,-5.303030303030308,-7.151515151515148,11.06060606060606,31.03030303030303,12.24242424242424,10.393939393939393,23.939393939393934,30.030303030303028,-4.5151515151515165
52,0.125,T2,1,-18.333333333333332,-9.939393939393938,0.060606060606059976,21.666666666666668,14.121212121212121,12.303030303030301,1.4545454545454564,-9.696969696969697,-24.666666666666668,-4.484848484848482,3.848484848484849,39.81818181818182,6.03030303030303,6.090909090909091,-34.39393939393939,-26.575757575757574,-15.03030303030303,-8.090909090909086,5.999999999999999,13.515151515151514,3.484848484848483,6.545454545454545,25.484848484848477,25.242424242424242,2.5151515151515187,3.939393939393934,17.545454545454543,13.666666666666668,-6.060606060606062,-18.39393939393939,5.6969696969696955,1.6363636363636367,7.515151515151515,12.757575757575758,13.030303030303028,9.727272727272725,11.515151515151514,-21.121212121212118,-15.121212121212123,-24.15151515151515,-28.454545454545457,1.7878787878787887,-38.42424242424242,-4.545454545454544,-33.51515151515151,-19.757575757575754,-32.96969696969696,-25.60606060606061,-20.151515151515152,-16.424242424242422,-3.090909090909091,5.1212121212121176,5.787878787878787,-2.454545454545455,-13.21212121212121,-29.3030303030303,-22.151515151515145,-2.93939393939394,5.030303030303034,-17.757575757575758,-3.606060606060608,11.939393939393936,14.03030303030303,-5.515151515151517
53,0.13125,T2,1,-2.3333333333333317,2.060606060606061,3.06060606060606,10.666666666666668,7.121212121212121,8.303030303030303,-0.5454545454545449,4.303030303030303,-7.666666666666669,4.5151515151515165,8.848484848484848,39.81818181818182,11.030303030303031,12.090909090909092,-20.39393939393939,-9.575757575757576,-2.0303030303030285,1.909090909090912,13.999999999999998,18.515151515151516,6.4848484848484835,36.54545454545454,41.48484848484848,36.24242424242424,33.51515151515152,31.93939393939393,33.54545454545455,22.666666666666664,5.939393939393937,4.606060606060613,29.696969696969692,20.636363636363637,26.515151515151512,23.757575757575758,22.03030303030303,21.727272727272727,15.515151515151516,-20.12121212121212,7.878787878787878,-16.151515151515145,1.5454545454545454,21.787878787878785,-7.424242424242422,-5.545454545454541,2.484848484848488,6.242424242424241,-6.96969696969697,6.393939393939393,12.848484848484846,17.575757575757574,26.90909090909091,26.121212121212118,20.787878787878785,11.545454545454545,3.78787878787879,-0.303030303030305,11.84848484848485,23.06060606060606,17.030303030303035,-7.757575757575758,-5.606060606060603,12.939393939393936,2.030303030303032,1.4848484848484838
54,0.1375,T2,1,23.666666666666668,30.06060606060606,29.06060606060606,29.666666666666664,25.121212121212118,20.303030303030305,4.454545454545455,38.303030303030305,26.333333333333332,32.515151515151516,34.84848484848485,64.81818181818181,20.03030303030303,17.090909090909093,16.606060606060606,20.424242424242422,27.96969696969697,24.90909090909091,27.0,24.515151515151512,12.484848484848483,58.54545454545454,61.484848484848484,56.24242424242424,48.515151515151516,45.93939393939393,49.54545454545454,34.666666666666664,14.939393939393936,18.60606060606061,45.69696969696969,22.636363636363637,35.515151515151516,33.75757575757575,30.030303030303028,26.727272727272727,10.515151515151517,-13.121212121212121,17.87878787878788,-28.15151515151515,39.54545454545454,-12.212121212121211,17.57575757575757,-26.545454545454543,16.484848484848488,1.2424242424242422,7.030303030303031,12.393939393939393,13.848484848484848,17.575757575757574,16.909090909090907,10.12121212121212,0.7878787878787864,-11.454545454545453,-15.212121212121211,-8.303030303030306,4.84848484848485,12.060606060606059,-2.969696969696964,-30.75757575757576,-5.606060606060603,10.939393939393934,-10.969696969696972,-14.515151515151516
55,0.14375,T2,1,20.666666666666668,18.06060606060606,21.06060606060606,20.666666666666668,9.121212121212121,-2.696969696969697,-18.545454545454547,50.3030303030303,20.333333333333332,25.515151515151516,29.848484848484848,50.81818181818182,-2.9696969696969693,-11.909090909090908,24.606060606060606,21.424242424242422,24.96969696969697,19.90909090909091,8.0,4.515151515151513,-13.515151515151517,44.54545454545454,45.48484848484848,45.24242424242424,39.515151515151516,36.93939393939393,35.54545454545455,24.666666666666664,3.9393939393939372,11.606060606060613,32.696969696969695,11.636363636363635,22.515151515151512,22.757575757575758,19.030303030303028,14.727272727272727,4.515151515151513,-19.12121212121212,22.87878787878788,-45.15151515151514,28.545454545454543,-61.212121212121204,0.5757575757575757,-18.545454545454543,23.484848484848488,-8.757575757575758,23.030303030303028,22.393939393939394,26.848484848484844,28.575757575757574,23.909090909090907,14.121212121212118,0.7878787878787864,-9.454545454545457,-5.212121212121208,15.696969696969694,29.84848484848485,31.060606060606055,8.030303030303035,-9.75757575757576,10.393939393939393,22.939393939393934,-4.969696969696969,-14.515151515151516
56,0.15,T2,1,18.666666666666668,13.06060606060606,21.06060606060606,27.666666666666664,13.121212121212121,9.303030303030303,-4.545454545454544,52.3030303030303,23.333333333333332,32.515151515151516,37.84848484848485,69.81818181818183,13.030303030303031,1.0909090909090915,28.606060606060606,32.42424242424242,35.96969696969697,38.909090909090914,31.0,26.515151515151512,6.4848484848484835,54.54545454545454,57.484848484848484,55.24242424242424,47.51515151515152,44.93939393939394,42.54545454545454,36.666666666666664,25.93939393939394,14.60606060606061,28.696969696969695,23.636363636363633,22.515151515151512,26.757575757575758,29.03030303030303,22.727272727272727,27.515151515151516,3.878787878787879,31.878787878787875,-20.15151515151515,44.54545454545454,-8.212121212121211,3.575757575757574,-15.54545454545454,27.484848484848488,4.242424242424242,34.03030303030303,40.39393939393939,42.848484848484844,45.57575757575758,45.90909090909091,39.12121212121212,26.787878787878785,12.545454545454543,10.78787878787879,54.696969696969695,58.84848484848485,54.06060606060606,31.03030303030303,12.24242424242424,47.39393939393939,55.93939393939393,25.030303030303028,17.484848484848484
57,0.15625,T2,1,25.666666666666664,9.06060606060606,10.06060606060606,20.666666666666668,13.121212121212121,19.3030303030303,13.454545454545457,51.303030303030305,18.333333333333332,21.515151515151516,28.848484848484848,70.81818181818181,21.03030303030303,15.09090909090909,30.606060606060606,28.424242424242422,31.96969696969697,30.90909090909091,31.0,27.515151515151512,13.484848484848484,53.54545454545454,63.48484848484848,65.24242424242424,46.515151515151516,42.93939393939393,38.54545454545455,46.666666666666664,35.93939393939394,21.60606060606061,45.69696969696969,14.636363636363635,12.515151515151514,16.757575757575758,24.03030303030303,21.727272727272727,30.515151515151516,-1.1212121212121204,42.878787878787875,-8.151515151515145,23.545454545454543,-1.2121212121212113,11.575757575757574,-19.545454545454543,21.484848484848488,-10.757575757575756,34.03030303030303,35.39393939393939,34.84848484848485,38.57575757575758,35.90909090909091,30.121212121212118,17.78787878787879,3.545454545454545,-0.21212121212120907,49.696969696969695,48.84848484848485,48.06060606060606,26.03030303030303,4.242424242424239,73.39393939393939,78.93939393939394,40.030303030303024,49.48484848484848
58,0.1625,T2,1,28.666666666666668,15.06060606060606,8.060606060606059,10.666666666666668,8.121212121212121,16.303030303030305,16.454545454545453,40.3030303030303,11.333333333333332,12.515151515151516,14.848484848484848,54.81818181818182,12.030303030303031,13.090909090909092,14.606060606060607,14.424242424242424,22.96969696969697,16.90909090909091,21.0,20.515151515151512,10.484848484848484,78.54545454545455,82.48484848484848,78.24242424242425,65.51515151515152,63.93939393939394,55.54545454545455,62.666666666666664,47.93939393939394,38.6060606060606,74.69696969696969,42.63636363636364,38.515151515151516,43.75757575757576,47.03030303030303,45.72727272727272,53.515151515151516,18.87878787878788,31.878787878787875,4.848484848484852,4.545454545454548,-22.21212121212121,32.57575757575757,-2.5454545454545427,19.484848484848488,0.24242424242424243,21.03030303030303,16.393939393939394,18.848484848484848,28.575757575757574,27.90909090909091,29.121212121212118,17.78787878787879,6.545454545454544,3.78787878787879,18.696969696969692,18.84848484848485,31.060606060606055,23.030303030303035,-3.7575757575757627,58.39393939393939,65.93939393939392,33.030303030303024,42.484848484848484
59,0.16875,T2,1,23.666666666666668,17.060606060606062,14.06060606060606,24.666666666666664,19.12121212121212,22.303030303030305,22.454545454545453,10.303030303030305,-6.666666666666669,-2.4848484848484844,-0.15151515151515121,41.81818181818182,-1.969696969696969,5.09090909090909,-23.39393939393939,-23.575757575757574,-8.03030303030303,-11.090909090909085,-4.000000000000001,-0.4848484848484866,-5.515151515151516,54.54545454545454,76.48484848484847,79.24242424242425,56.515151515151516,53.93939393939393,43.54545454545454,50.66666666666666,40.93939393939394,26.60606060606061,57.696969696969695,24.636363636363633,18.515151515151516,21.757575757575758,28.030303030303028,25.727272727272723,36.51515151515151,10.878787878787879,2.8787878787878785,-12.151515151515147,1.5454545454545454,-1.2121212121212113,8.575757575757574,-29.545454545454543,-4.515151515151513,-26.757575757575754,-12.969696969696967,-27.606060606060602,-28.15151515151515,-17.424242424242426,-5.090909090909089,-0.8787878787878807,-8.212121212121215,-19.45454545454545,-22.212121212121204,-23.303030303030305,-21.15151515151515,6.060606060606059,3.0303030303030343,-23.75757575757576,4.393939393939393,22.939393939393934,3.0303030303030294,-9.515151515151516
60,0.175,T2,1,7.666666666666667,0.06060606060606167,2.06060606060606,10.666666666666668,5.121212121212121,10.303030303030305,12.454545454545453,11.303030303030303,-7.666666666666669,-3.4848484848484818,-0.15151515151515121,38.81818181818182,-1.969696969696969,6.090909090909091,-15.393939393939393,-13.575757575757574,0.9696969696969697,4.90909090909091,11.0,13.515151515151514,4.4848484848484835,63.54545454545454,76.48484848484847,77.24242424242425,71.51515151515152,67.93939393939392,50.54545454545455,44.666666666666664,32.93939393939393,47.60606060606061,77.69696969696969,36.63636363636363,46.51515151515151,43.75757575757576,40.030303030303024,43.72727272727272,36.51515151515151,5.87878787878788,41.87878787878788,1.8484848484848537,41.54545454545455,53.78787878787879,43.57575757575757,-44.54545454545454,31.484848484848488,15.242424242424242,29.03030303030303,18.39393939393939,20.848484848484848,44.57575757575758,59.90909090909091,58.12121212121212,46.78787878787878,28.545454545454543,22.787878787878793,31.696969696969695,36.848484848484844,76.06060606060605,69.03030303030303,43.242424242424235,2.3939393939393954,35.93939393939393,25.030303030303028,-7.515151515151515
61,0.18125,T2,1,65.66666666666666,70.06060606060606,75.06060606060605,69.66666666666667,60.12121212121212,49.3030303030303,26.454545454545453,81.3030303030303,65.33333333333333,79.51515151515152,80.84848484848484,102.81818181818181,42.03030303030303,26.090909090909093,50.60606060606061,59.42424242424242,80.96969696969697,84.9090909090909,74.0,60.515151515151516,26.48484848484848,80.54545454545453,75.48484848484847,58.24242424242424,93.51515151515152,90.93939393939392,71.54545454545455,39.666666666666664,2.939393939393937,72.60606060606061,100.69696969696969,62.63636363636363,77.51515151515152,70.75757575757576,59.03030303030303,55.72727272727272,21.515151515151512,-35.12121212121212,69.87878787878788,-31.15151515151515,76.54545454545455,-2.2121212121212115,57.57575757575757,-5.545454545454541,60.48484848484849,2.2424242424242418,53.030303030303024,56.39393939393939,57.848484848484844,82.57575757575756,91.90909090909092,81.12121212121211,59.78787878787879,32.54545454545454,18.787878787878793,48.69696969696969,52.848484848484844,88.06060606060606,72.03030303030303,38.242424242424235,40.39393939393939,80.93939393939394,70.03030303030303,25.484848484848484
62,0.1875,T2,1,61.66666666666667,60.060606060606055,59.06060606060606,51.666666666666664,43.121212121212125,27.303030303030305,2.4545454545454537,77.3030303030303,49.33333333333333,58.51515151515151,54.84848484848485,76.81818181818183,18.03030303030303,-1.9090909090909087,33.60606060606061,32.42424242424242,53.969696969696976,51.90909090909091,40.0,24.515151515151512,-6.515151515151516,38.54545454545455,30.48484848484848,21.242424242424242,38.51515151515152,37.93939393939393,26.545454545454543,6.666666666666667,-12.060606060606062,22.60606060606061,49.696969696969695,13.636363636363635,21.515151515151512,17.757575757575758,13.030303030303028,9.727272727272725,9.515151515151512,-15.121212121212121,16.878787878787875,-34.15151515151515,-6.454545454545456,-57.21212121212121,-5.424242424242427,-16.54545454545454,-14.515151515151512,-35.75757575757576,-9.969696969696969,-7.606060606060607,-2.151515151515152,10.575757575757574,20.90909090909091,13.121212121212118,-5.212121212121212,-20.454545454545453,-28.212121212121207,-16.303030303030305,-11.15151515151515,18.06060606060606,10.030303030303033,-14.75757575757576,40.39393939393939,73.93939393939394,66.03030303030303,28.484848484848484
63,0.19375,T2,1,1.6666666666666672,-0.9393939393939389,-0.9393939393939389,-7.333333333333331,-10.878787878787879,-5.696969696969697,-1.5454545454545454,13.303030303030303,-6.666666666666669,2.515151515151517,-1.1515151515151512,27.818181818181817,-17.96969696969697,-26.909090909090907,-30.39393939393939,-23.575757575757574,-4.030303030303029,-0.09090909090908912,-7.000000000000001,-14.484848484848484,-35.515151515151516,29.545454545454543,46.48484848484848,52.242424242424235,18.515151515151523,15.939393939393934,14.545454545454545,20.666666666666664,35.93939393939394,-7.393939393939388,18.696969696969692,0.6363636363636365,-1.4848484848484855,1.7575757575757578,1.0303030303030298,-1.2727272727272738,30.515151515151516,45.878787878787875,-21.121212121212118,-2.1515151515151487,-43.45454545454546,-30.21212121212121,-44.424242424242415,-26.545454545454543,-34.5151515151515,-18.757575757575758,-32.96969696969696,-28.606060606060606,-19.15151515151515,-6.424242424242423,4.90909090909091,4.121212121212119,-11.212121212121213,-21.45454545454545,-22.212121212121204,-20.303030303030308,-14.151515151515149,16.06060606060606,10.030303030303033,-2.7575757575757587,11.393939393939394,37.93939393939393,37.03030303030303,8.484848484848484
64,0.2,T2,1,-10.333333333333332,-2.9393939393939386,0.060606060606059976,-8.333333333333332,-7.878787878787878,-0.6969696969696971,14.454545454545453,3.303030303030303,-5.666666666666668,5.515151515151517,1.8484848484848486,31.81818181818182,-6.969696969696969,-13.909090909090908,-28.39393939393939,-14.575757575757576,3.9696969696969697,8.90909090909091,5.999999999999999,3.5151515151515134,-17.515151515151516,54.54545454545454,68.48484848484848,70.24242424242424,31.51515151515152,28.93939393939393,21.545454545454543,36.666666666666664,57.93939393939394,2.6060606060606113,30.696969696969692,9.636363636363637,2.5151515151515142,3.7575757575757573,6.030303030303029,3.727272727272726,34.515151515151516,52.87878787878787,-7.1212121212121176,6.848484848484853,-0.45454545454545237,-3.2121212121212115,-27.424242424242426,-10.545454545454541,-11.515151515151514,-4.757575757575757,-12.969696969696967,-1.606060606060607,7.848484848484847,20.575757575757574,30.90909090909091,36.12121212121212,20.787878787878785,9.545454545454543,8.787878787878789,3.696969696969694,13.848484848484851,48.06060606060606,51.03030303030303,47.242424242424235,4.393939393939393,33.93939393939394,47.03030303030303,11.484848484848483
65,0.20625,T2,1,-2.3333333333333317,1.0606060606060606,-2.93939393939394,-9.333333333333332,-5.878787878787879,3.3030303030303023,19.454545454545453,20.303030303030305,5.333333333333332,11.515151515151517,7.848484848484847,36.81818181818182,2.030303030303031,0.09090909090909081,-15.393939393939393,-1.5757575757575746,15.969696969696972,18.90909090909091,17.0,13.515151515151514,-6.515151515151516,36.54545454545454,51.48484848484848,52.242424242424235,5.515151515151517,4.9393939393939315,9.545454545454545,23.66666666666666,41.93939393939394,-24.393939393939387,15.696969696969694,-6.363636363636363,-10.484848484848484,-9.242424242424244,-3.9696969696969697,-5.272727272727273,24.51515151515152,45.878787878787875,-19.121212121212118,3.848484848484848,-19.454545454545453,7.787878787878789,-32.42424242424242,-19.545454545454543,-27.51515151515151,-2.757575757575758,-10.969696969696965,-0.6060606060606065,7.848484848484847,20.575757575757574,29.909090909090907,31.121212121212118,18.787878787878785,6.545454545454544,5.787878787878791,8.696969696969694,13.848484848484851,38.060606060606055,45.03030303030303,32.242424242424235,13.393939393939393,39.93939393939394,57.030303030303024,7.4848484848484835
66,0.2125,T2,1,-21.333333333333332,-12.93939393939394,-13.93939393939394,-14.333333333333332,-13.878787878787879,-1.696969696969697,10.454545454545451,18.3030303030303,8.333333333333332,9.515151515151516,7.848484848484847,38.81818181818182,0.030303030303030835,-1.9090909090909087,-14.393939393939393,1.4242424242424248,13.96969696969697,18.90909090909091,14.999999999999998,11.515151515151514,-6.515151515151516,-3.454545454545454,20.484848484848477,29.24242424242424,-38.484848484848484,-39.06060606060607,-8.454545454545455,2.666666666666668,11.939393939393938,-60.393939393939384,-12.303030303030301,-18.363636363636363,-25.484848484848484,-24.242424242424242,-18.96969696969697,-19.272727272727273,11.515151515151514,34.87878787878788,-38.12121212121212,-2.1515151515151487,-44.45454545454545,11.787878787878787,-41.42424242424242,-25.54545454545454,-17.515151515151512,1.2424242424242422,2.030303030303032,6.393939393939393,15.848484848484848,26.575757575757574,34.909090909090914,39.12121212121212,26.787878787878785,12.545454545454543,10.78787878787879,19.696969696969692,24.84848484848485,43.060606060606055,50.03030303030303,37.242424242424235,28.393939393939394,44.93939393939394,54.030303030303024,-3.5151515151515156
67,0.21875,T2,1,-35.33333333333333,-23.939393939393938,-20.939393939393938,-21.333333333333336,-15.878787878787879,0.3030303030303028,17.454545454545453,18.3030303030303,4.333333333333331,8.515151515151516,9.848484848484848,43.81818181818182,11.030303030303031,17.090909090909093,-8.393939393939393,1.4242424242424248,16.96969696969697,21.90909090909091,21.0,21.515151515151512,6.4848484848484835,-18.45454545454546,7.484848484848481,12.24242424242424,-36.48484848484848,-40.06060606060606,-18.454545454545453,-2.3333333333333326,10.939393939393936,-52.39393939393939,-9.303030303030303,-22.363636363636363,-32.484848484848484,-31.242424242424242,-22.969696969696972,-20.272727272727273,18.515151515151516,45.878787878787875,-33.12121212121212,19.84848484848485,-10.454545454545451,76.78787878787878,-38.42424242424242,-27.54545454545454,-3.515151515151509,7.242424242424242,20.030303030303028,16.393939393939394,17.84848484848485,31.575757575757574,39.909090909090914,47.12121212121211,33.78787878787879,22.545454545454543,19.78787878787879,35.696969696969695,37.84848484848485,56.060606060606055,61.03030303030303,56.24242424242424,45.39393939393939,61.93939393939394,67.03030303030303,24.484848484848484
68,0.225,T2,1,-26.333333333333332,-23.939393939393938,-23.939393939393934,-25.33333333333333,-11.878787878787877,8.303030303030303,36.45454545454545,27.3030303030303,3.3333333333333326,7.5151515151515165,11.84848484848485,35.81818181818182,20.03030303030303,41.09090909090909,1.606060606060607,4.424242424242425,19.969696969696972,28.90909090909091,25.999999999999996,27.515151515151512,17.484848484848484,16.54545454545454,28.48484848484848,31.242424242424242,-17.484848484848474,-21.060606060606062,-7.454545454545455,14.666666666666668,34.93939393939394,-43.39393939393939,-0.30303030303030837,-22.363636363636363,-29.484848484848488,-26.242424242424242,-15.969696969696972,-14.272727272727272,26.515151515151512,58.87878787878788,-41.121212121212125,28.84848484848485,-15.454545454545451,74.78787878787878,-36.42424242424243,-6.545454545454545,-25.515151515151516,8.24242424242424,-5.969696969696966,-0.6060606060606065,4.848484848484848,21.575757575757574,30.90909090909091,35.12121212121212,17.78787878787879,10.545454545454543,11.78787878787879,9.696969696969694,12.84848484848485,43.060606060606055,38.03030303030303,32.242424242424235,44.39393939393939,75.93939393939392,79.03030303030303,47.484848484848484
69,0.23125,T2,1,-37.333333333333336,-31.939393939393938,-24.93939393939394,-27.333333333333332,-13.878787878787879,1.303030303030303,24.454545454545453,8.303030303030303,-14.66666666666667,-4.484848484848482,4.848484848484849,21.81818181818182,3.0303030303030307,20.09090909090909,-31.393939393939387,-18.575757575757578,-0.03030303030302914,9.90909090909091,2.999999999999999,0.515151515151514,-9.515151515151514,6.545454545454545,19.48484848484848,27.24242424242424,-26.484848484848474,-28.06060606060606,-7.454545454545455,14.666666666666668,26.939393939393938,-56.39393939393939,-4.303030303030304,-17.363636363636363,-24.484848484848488,-18.24242424242424,-9.96969696969697,-12.272727272727275,26.515151515151512,58.87878787878788,-55.12121212121211,11.848484848484853,-62.45454545454546,-3.2121212121212115,-63.424242424242415,-38.54545454545455,-40.515151515151516,-12.757575757575758,-32.96969696969696,-23.606060606060606,-17.151515151515152,-1.4242424242424239,2.909090909090909,-1.8787878787878813,-19.212121212121215,-29.45454545454545,-27.212121212121204,-2.3030303030303063,-4.15151515151515,10.060606060606059,-8.969696969696964,-27.757575757575758,24.393939393939394,55.93939393939393,46.03030303030303,28.484848484848484
70,0.2375,T2,1,-44.33333333333333,-33.93939393939394,-23.939393939393934,-23.333333333333336,-14.878787878787879,-1.696969696969697,19.454545454545453,-16.6969696969697,-28.666666666666664,-17.48484848484848,-12.15151515151515,8.81818181818182,-11.969696969696969,10.09090909090909,-48.3939393939394,-36.57575757575757,-20.030303030303024,-16.090909090909086,-25.999999999999996,-30.484848484848488,-33.515151515151516,-5.454545454545455,10.484848484848479,16.242424242424242,-24.48484848484848,-25.060606060606066,-15.454545454545455,-0.3333333333333324,8.939393939393936,-62.3939393939394,-6.303030303030305,-34.36363636363635,-34.484848484848484,-35.242424242424235,-27.969696969696972,-26.272727272727273,7.515151515151518,39.87878787878788,-66.12121212121212,-21.151515151515145,-70.45454545454545,-113.2121212121212,-53.42424242424242,3.454545454545454,-48.51515151515151,-61.75757575757576,-40.96969696969697,-46.60606060606061,-51.15151515151515,-44.42424242424242,-51.09090909090908,-57.87878787878788,-72.2121212121212,-77.45454545454544,-67.21212121212122,-25.303030303030305,-36.15151515151515,-44.93939393939394,-57.96969696969696,-59.757575757575765,-5.606060606060603,8.939393939393934,-13.96969696969697,-13.515151515151516
71,0.24375,T2,1,-63.333333333333336,-56.939393939393945,-62.93939393939394,-67.33333333333331,-69.87878787878789,-52.6969696969697,-26.545454545454543,-34.696969696969695,-55.66666666666667,-58.48484848484848,-63.15151515151515,-35.18181818181817,-67.96969696969697,-63.909090909090914,-73.39393939393939,-66.57575757575756,-60.03030303030303,-64.09090909090908,-74.0,-76.48484848484848,-86.51515151515152,-17.454545454545457,-14.51515151515152,-14.75757575757576,-33.484848484848484,-33.060606060606055,-41.45454545454545,-33.333333333333336,-12.060606060606062,-67.39393939393938,-6.303030303030305,-55.36363636363636,-48.484848484848484,-55.242424242424235,-52.96969696969697,-46.27272727272727,-18.484848484848484,18.87878787878788,-65.12121212121212,-36.15151515151515,-61.454545454545446,-59.212121212121204,-64.42424242424242,-13.545454545454543,-49.515151515151516,-34.75757575757576,-38.96969696969696,-48.6060606060606,-54.15151515151515,-48.42424242424243,-58.090909090909086,-57.87878787878788,-66.2121212121212,-60.45454545454545,-33.21212121212121,-18.303030303030305,-25.151515151515145,-36.939393939393945,-38.96969696969696,-19.757575757575758,-23.606060606060606,-21.060606060606062,-34.96969696969697,-26.515151515151516
72,0.25,T2,1,-35.33333333333333,-24.939393939393938,-32.93939393939394,-42.33333333333333,-46.87878787878788,-34.696969696969695,-9.545454545454545,-0.6969696969696965,-23.666666666666664,-23.484848484848484,-28.15151515151515,-6.181818181818178,-38.96969696969697,-37.90909090909091,-45.39393939393939,-35.57575757575758,-30.030303030303024,-32.09090909090909,-37.0,-33.484848484848484,-41.515151515151516,4.545454545454544,7.484848484848481,9.242424242424242,-9.48484848484848,-10.060606060606068,-9.454545454545453,-7.333333333333333,12.939393939393938,-42.39393939393939,23.696969696969692,-19.363636363636363,-12.484848484848484,-16.242424242424242,-18.96969696969697,-15.272727272727273,5.515151515151517,37.878787878787875,-31.121212121212125,-6.1515151515151505,-39.45454545454545,3.787878787878788,-64.42424242424242,-44.54545454545454,-32.51515151515151,14.242424242424242,-20.969696969696972,-25.60606060606061,-25.151515151515152,-19.42424242424242,-24.09090909090909,-19.878787878787882,-23.212121212121207,-15.454545454545455,11.78787878787879,-5.303030303030308,-7.151515151515148,-9.939393939393941,-2.969696969696964,9.242424242424239,-17.606060606060602,-11.060606060606064,-4.969696969696969,-17.515151515151516
73,0.25625,T2,1,-9.33333333333333,0.06060606060606167,-7.9393939393939394,-18.33333333333333,-11.878787878787877,-3.696969696969697,15.454545454545451,22.3030303030303,2.3333333333333317,5.515151515151517,4.848484848484849,28.818181818181824,-4.969696969696969,-1.9090909090909087,-20.39393939393939,-11.575757575757574,1.9696969696969704,4.90909090909091,-2.0000000000000013,2.5151515151515134,-8.515151515151517,18.545454545454543,38.484848484848484,38.242424242424235,-0.4848484848484798,1.9393939393939328,17.545454545454543,22.666666666666664,37.93939393939394,-23.39393939393939,31.696969696969695,2.6363636363636362,13.515151515151516,9.757575757575758,10.03030303030303,13.727272727272725,31.515151515151512,67.87878787878788,-6.12121212121212,12.84848484848485,-17.454545454545453,17.78787878787879,-21.424242424242422,-19.545454545454543,-8.515151515151508,12.242424242424242,5.03030303030303,3.3939393939393923,6.848484848484848,12.575757575757574,13.909090909090908,16.121212121212118,8.787878787878785,5.545454545454544,18.787878787878793,20.696969696969695,23.84848484848485,25.06060606060606,25.030303030303035,29.24242424242424,4.393939393939393,17.939393939393934,31.030303030303024,-3.5151515151515156
74,0.2625,T2,1,7.666666666666667,27.060606060606062,18.06060606060606,5.666666666666668,10.121212121212123,18.3030303030303,25.454545454545457,47.3030303030303,31.33333333333333,32.515151515151516,32.84848484848485,58.81818181818182,14.030303030303033,10.09090909090909,6.606060606060607,15.424242424242424,29.96969696969697,31.909090909090907,29.0,26.515151515151512,10.484848484848484,16.54545454545454,35.48484848484848,35.24242424242424,-1.484848484848477,-2.0606060606060628,16.545454545454543,24.666666666666664,33.93939393939394,-28.39393939393939,19.696969696969692,6.636363636363636,8.515151515151514,8.757575757575758,10.03030303030303,9.727272727272725,27.515151515151516,64.87878787878789,-24.121212121212118,7.84848484848485,-8.45454545454545,-6.212121212121211,-31.424242424242426,-9.545454545454543,2.484848484848488,13.24242424242424,22.03030303030303,15.393939393939393,16.848484848484844,27.575757575757574,32.90909090909091,37.12121212121212,27.787878787878785,22.545454545454543,26.78787878787879,29.696969696969692,29.84848484848485,43.060606060606055,46.03030303030303,51.24242424242424,33.3939393939394,51.93939393939394,63.030303030303024,22.48484848484848
75,0.26875,T2,1,-22.33333333333333,-2.9393939393939386,-5.939393939393939,-16.333333333333336,-15.878787878787879,-11.696969696969695,-2.545454545454546,17.3030303030303,2.3333333333333317,7.5151515151515165,13.848484848484848,29.81818181818182,-5.96969696969697,-10.909090909090908,-18.39393939393939,-5.575757575757575,8.96969696969697,12.90909090909091,5.0,8.515151515151514,-4.5151515151515165,-19.454545454545457,-13.515151515151521,-13.757575757575754,-36.48484848484848,-37.06060606060606,-30.454545454545453,-23.333333333333332,-12.060606060606062,-61.3939393939394,-24.303030303030308,-35.36363636363636,-35.484848484848484,-39.24242424242424,-33.96969696969697,-30.272727272727273,-13.484848484848484,18.87878787878788,-56.121212121212125,-29.15151515151515,-39.45454545454545,-31.21212121212121,-65.42424242424241,-27.54545454545454,-33.51515151515151,3.242424242424242,-16.96969696969697,-10.606060606060606,-11.151515151515152,8.575757575757576,12.909090909090908,20.121212121212118,7.787878787878787,7.545454545454544,10.78787878787879,12.696969696969694,13.848484848484851,30.06060606060606,33.03030303030303,38.242424242424235,38.3939393939394,56.93939393939394,68.03030303030302,26.48484848484848
76,0.275,T2,1,-32.33333333333332,-12.93939393939394,-25.939393939393938,-43.333333333333336,-31.878787878787882,-15.696969696969697,-6.545454545454545,22.3030303030303,6.333333333333332,9.515151515151516,11.84848484848485,27.818181818181817,-1.969696969696969,-1.9090909090909087,-10.393939393939393,7.424242424242425,19.969696969696972,23.909090909090907,14.999999999999998,20.515151515151512,7.4848484848484835,-7.454545454545457,-4.51515151515152,-7.757575757575758,-17.484848484848474,-19.06060606060607,-22.454545454545457,-14.333333333333332,-12.060606060606062,-39.393939393939384,-2.3030303030303028,-18.363636363636363,-15.484848484848484,-22.24242424242424,-16.96969696969697,-5.272727272727273,13.515151515151516,54.878787878787875,-30.12121212121212,9.848484848484851,-38.45454545454546,53.78787878787879,-39.424242424242415,-60.54545454545454,-8.515151515151508,12.242424242424242,12.030303030303031,27.393939393939394,29.84848484848485,48.57575757575757,51.90909090909091,54.12121212121212,40.78787878787878,34.54545454545454,31.78787878787879,52.696969696969695,56.84848484848485,66.06060606060605,61.03030303030303,61.242424242424235,46.393939393939384,60.93939393939393,67.03030303030303,26.48484848484848
77,0.28125,T2,1,-2.3333333333333317,18.06060606060606,12.06060606060606,-7.333333333333331,4.121212121212122,25.303030303030305,44.45454545454545,48.303030303030305,37.33333333333333,44.515151515151516,46.84848484848485,68.81818181818183,33.030303030303024,49.09090909090909,19.60606060606061,37.42424242424242,52.96969696969696,51.90909090909091,47.0,47.51515151515151,35.484848484848484,2.5454545454545427,2.484848484848481,9.242424242424242,-8.484848484848484,-9.060606060606071,-12.454545454545455,14.666666666666668,13.939393939393938,-32.39393939393939,2.696969696969697,0.6363636363636365,-11.484848484848484,-15.24242424242424,-4.969696969696971,1.7272727272727262,40.515151515151516,80.87878787878786,-29.121212121212118,29.84848484848485,-34.45454545454545,55.78787878787878,-41.42424242424242,-28.54545454545454,1.4848484848484906,8.24242424242424,34.03030303030303,35.39393939393939,30.848484848484848,48.57575757575757,49.90909090909091,49.12121212121212,35.78787878787878,29.545454545454543,36.78787878787879,60.69696969696969,52.848484848484844,55.060606060606055,48.03030303030303,51.24242424242424,59.39393939393939,62.93939393939394,68.03030303030302,30.484848484848484
78,0.2875,T2,1,-22.33333333333333,-9.939393939393938,-14.939393939393941,-27.333333333333332,-17.878787878787875,4.303030303030303,21.454545454545453,27.3030303030303,11.333333333333332,11.515151515151517,13.848484848484848,35.81818181818182,4.03030303030303,12.090909090909092,-3.3939393939393923,9.424242424242426,20.969696969696972,18.90909090909091,14.999999999999998,14.515151515151512,-1.5151515151515162,-34.45454545454545,-24.51515151515152,-10.757575757575756,-41.48484848484847,-42.06060606060606,-39.45454545454545,-13.333333333333334,-4.060606060606062,-64.39393939393939,-19.303030303030308,-31.363636363636356,-41.484848484848484,-44.24242424242424,-29.969696969696972,-23.272727272727273,12.515151515151517,45.878787878787875,-46.121212121212125,-22.151515151515145,-46.454545454545446,-38.21212121212121,-70.42424242424242,-0.5454545454545414,-37.51515151515151,-17.757575757575758,-0.9696969696969664,4.393939393939393,2.8484848484848477,23.575757575757574,23.909090909090907,20.121212121212118,5.787878787878787,1.5454545454545436,13.78787878787879,29.696969696969692,31.84848484848485,39.06060606060606,23.030303030303035,30.24242424242424,48.3939393939394,46.93939393939394,53.030303030303024,23.484848484848484
79,0.29375,T2,1,-35.33333333333333,-16.939393939393938,-21.93939393939394,-32.33333333333333,-19.87878787878788,-2.696969696969697,-1.5454545454545454,28.3030303030303,11.333333333333332,23.515151515151516,23.848484848484848,41.81818181818182,7.030303030303031,-0.9090909090909081,2.6060606060606077,21.424242424242422,35.96969696969697,36.90909090909091,34.0,30.515151515151512,10.484848484848484,-21.454545454545457,-23.51515151515152,-20.757575757575754,-27.484848484848474,-30.060606060606066,-32.45454545454545,-13.333333333333334,-12.060606060606062,-56.39393939393939,-7.303030303030302,-16.363636363636363,-23.484848484848484,-25.24242424242424,-13.969696969696969,-7.272727272727273,16.515151515151512,40.878787878787875,-36.121212121212125,-9.151515151515149,-22.454545454545453,19.78787878787879,-54.424242424242415,-22.54545454545454,2.484848484848488,36.24242424242424,27.03030303030303,45.39393939393939,49.84848484848485,75.57575757575758,80.9090909090909,77.12121212121212,64.78787878787878,58.54545454545454,63.78787878787879,73.69696969696969,83.84848484848484,104.06060606060606,92.03030303030303,103.24242424242424,60.39393939393939,64.93939393939394,76.03030303030303,38.484848484848484
80,0.3,T2,1,-17.333333333333332,5.060606060606061,8.060606060606059,-1.333333333333333,17.12121212121212,29.303030303030305,21.454545454545453,50.3030303030303,38.333333333333336,52.515151515151516,54.84848484848485,79.81818181818183,43.030303030303024,35.090909090909086,28.606060606060606,47.42424242424242,67.96969696969697,70.9090909090909,70.0,69.51515151515152,48.484848484848484,-54.45454545454545,-27.515151515151523,-16.75757575757576,-59.48484848484846,-56.06060606060606,-32.45454545454545,-14.333333333333332,-8.060606060606062,-67.39393939393938,-20.303030303030308,-18.363636363636363,-27.484848484848484,-28.242424242424235,-13.969696969696969,-14.272727272727272,-0.4848484848484866,21.878787878787875,-39.12121212121212,-5.151515151515147,-23.454545454545457,12.787878787878789,-73.42424242424242,-22.54545454545454,-5.51515151515151,39.24242424242424,32.03030303030303,39.39393939393939,45.848484848484844,69.57575757575758,75.9090909090909,81.12121212121211,72.7878787878788,64.54545454545453,65.78787878787878,55.69696969696969,66.84848484848484,92.06060606060606,92.03030303030303,97.24242424242424,75.39393939393939,89.93939393939392,108.03030303030303,52.484848484848484
81,0.30625,T2,1,-32.33333333333332,-20.93939393939394,-17.939393939393938,-16.333333333333336,-1.8787878787878778,11.303030303030301,0.45454545454545575,33.303030303030305,13.333333333333332,21.515151515151516,26.848484848484848,49.81818181818182,27.030303030303035,17.090909090909093,1.606060606060607,12.424242424242426,34.969696969696976,37.90909090909091,37.0,41.51515151515151,25.484848484848484,-68.45454545454545,-41.51515151515151,-28.75757575757576,-74.48484848484847,-76.06060606060608,-56.454545454545446,-36.333333333333336,-27.060606060606062,-83.39393939393939,-39.303030303030305,-49.36363636363636,-55.484848484848484,-56.242424242424235,-41.969696969696976,-37.272727272727266,-26.48484848484848,11.878787878787877,-57.12121212121212,-35.15151515151514,-73.45454545454545,-77.2121212121212,-83.42424242424242,-16.54545454545454,-34.5151515151515,15.242424242424242,-8.96969696969697,-4.6060606060606055,2.8484848484848477,27.575757575757574,37.90909090909091,43.12121212121212,37.78787878787879,32.54545454545454,37.787878787878796,6.6969696969696955,22.848484848484848,54.06060606060606,53.03030303030303,44.24242424242424,51.39393939393939,68.93939393939394,81.03030303030303,18.484848484848484
82,0.3125,T2,1,-59.33333333333333,-44.93939393939394,-44.93939393939394,-51.33333333333333,-33.878787878787875,-17.696969696969695,-25.545454545454547,-0.6969696969696965,-15.666666666666666,-5.484848484848483,-1.1515151515151512,19.81818181818182,4.03030303030303,-4.909090909090909,-31.393939393939387,-17.57575757575757,5.96969696969697,14.90909090909091,20.0,27.515151515151512,16.48484848484848,-63.45454545454545,-58.515151515151516,-48.75757575757576,-73.48484848484848,-74.06060606060606,-80.45454545454545,-58.333333333333336,-45.060606060606055,-84.39393939393939,-41.303030303030305,-64.36363636363637,-72.48484848484848,-76.24242424242424,-61.96969696969696,-54.272727272727266,-36.48484848484848,7.878787878787878,-69.12121212121212,-32.15151515151515,-40.45454545454545,-28.21212121212121,-58.424242424242415,-18.545454545454543,-26.515151515151512,31.242424242424242,-13.96969696969697,-7.606060606060607,4.848484848484848,30.575757575757578,45.90909090909091,58.12121212121212,52.787878787878775,52.54545454545455,55.78787878787878,21.696969696969695,33.84848484848485,70.06060606060606,79.03030303030303,76.24242424242424,28.393939393939394,46.93939393939394,54.030303030303024,-6.515151515151514
83,0.31875,T2,1,-45.33333333333333,-32.93939393939393,-39.93939393939394,-53.333333333333336,-31.878787878787882,-11.696969696969695,-14.545454545454545,24.3030303030303,0.3333333333333324,4.5151515151515165,8.848484848484848,35.81818181818182,17.03030303030303,14.090909090909092,-6.393939393939391,2.4242424242424243,20.969696969696972,29.90909090909091,36.0,43.51515151515151,35.484848484848484,-65.45454545454545,-53.515151515151516,-37.75757575757576,-63.48484848484848,-63.06060606060606,-74.45454545454545,-48.333333333333336,-25.06060606060606,-61.3939393939394,-30.303030303030305,-55.36363636363636,-65.48484848484847,-66.24242424242424,-53.96969696969697,-45.27272727272727,-27.48484848484848,16.878787878787875,-33.12121212121212,-10.151515151515147,-2.4545454545454537,39.78787878787879,-27.424242424242426,-20.545454545454543,-5.51515151515151,38.242424242424235,11.030303030303031,11.393939393939394,21.848484848484844,46.57575757575757,58.909090909090914,69.12121212121212,60.78787878787878,56.54545454545454,55.78787878787878,45.69696969696969,48.84848484848485,78.06060606060606,84.03030303030303,71.24242424242424,34.39393939393939,50.93939393939393,53.030303030303024,5.4848484848484835
84,0.325,T2,1,-23.333333333333332,-14.939393939393938,-24.93939393939394,-33.333333333333336,-18.87878787878788,-2.696969696969697,-6.545454545454545,46.303030303030305,22.333333333333332,22.515151515151516,30.848484848484848,52.81818181818181,27.030303030303035,25.09090909090909,11.606060606060607,18.424242424242422,36.96969696969697,43.909090909090914,48.0,52.51515151515151,44.48484848484848,-46.454545454545446,-36.51515151515151,-26.757575757575758,-46.48484848484847,-46.06060606060606,-62.45454545454546,-41.333333333333336,-25.06060606060606,-50.393939393939384,-22.3030303030303,-51.36363636363635,-50.484848484848484,-55.242424242424235,-45.96969696969697,-38.27272727272727,-25.484848484848484,17.87878787878788,-22.12121212121212,-5.151515151515147,-23.454545454545457,33.78787878787878,-32.42424242424242,-16.54545454545454,3.4848484848484915,56.24242424242424,25.030303030303028,24.393939393939394,30.848484848484848,61.57575757575757,75.9090909090909,86.12121212121212,80.78787878787878,76.54545454545455,79.78787878787878,57.696969696969695,59.848484848484844,97.06060606060606,103.03030303030303,98.24242424242424,62.3939393939394,75.93939393939392,78.03030303030302,40.484848484848484
85,0.33125,T2,1,-11.333333333333332,5.060606060606061,-4.9393939393939394,-4.333333333333333,1.1212121212121222,11.303030303030301,10.454545454545451,54.3030303030303,38.333333333333336,44.515151515151516,52.848484848484844,75.81818181818181,48.030303030303024,45.090909090909086,20.60606060606061,35.42424242424242,56.96969696969697,65.9090909090909,72.99999999999999,81.5151515151515,70.48484848484848,-7.454545454545457,-7.515151515151518,-1.7575757575757578,-4.484848484848482,-9.060606060606071,-39.45454545454545,-28.33333333333333,-7.060606060606062,-22.393939393939394,11.696969696969692,-23.363636363636363,-19.484848484848488,-26.242424242424242,-20.969696969696972,-16.272727272727273,-2.484848484848481,44.87878787878788,-6.12121212121212,14.848484848484851,-0.45454545454545237,36.78787878787879,3.575757575757574,-5.545454545454541,28.484848484848484,85.24242424242424,39.03030303030303,42.39393939393939,48.848484848484844,76.57575757575756,92.9090909090909,106.12121212121212,103.78787878787878,99.54545454545453,103.78787878787878,62.69696969696969,73.84848484848484,111.06060606060606,115.03030303030303,106.24242424242424,82.39393939393939,99.93939393939392,105.03030303030302,55.48484848484848
86,0.3375,T2,1,5.666666666666668,23.06060606060606,15.06060606060606,14.666666666666666,22.12121212121212,30.3030303030303,26.454545454545453,61.3030303030303,42.33333333333333,50.515151515151516,61.848484848484844,84.81818181818181,58.03030303030303,54.09090909090909,24.606060606060606,38.42424242424242,59.96969696969697,66.9090909090909,70.99999999999999,80.51515151515152,69.48484848484847,-1.4545454545454597,-5.515151515151517,-4.75757575757576,1.5151515151515147,-2.0606060606060628,-30.454545454545453,-25.33333333333333,0.9393939393939372,-16.39393939393939,17.696969696969695,-24.363636363636363,-17.484848484848488,-21.242424242424242,-19.96969696969697,-15.272727272727273,-0.4848484848484866,39.87878787878788,-3.1212121212121215,19.84848484848485,10.545454545454545,56.78787878787879,10.575757575757574,-26.545454545454543,21.484848484848488,49.242424242424235,42.03030303030303,39.39393939393939,43.848484848484844,63.575757575757564,71.9090909090909,81.12121212121211,76.7878787878788,68.54545454545455,67.7878787878788,70.6969696969697,77.84848484848484,92.06060606060606,85.03030303030303,72.24242424242424,90.3939393939394,103.93939393939394,99.03030303030303,59.48484848484848
87,0.34375,T2,1,0.6666666666666682,9.06060606060606,-5.939393939393939,-12.33333333333333,2.121212121212121,17.3030303030303,21.454545454545453,60.303030303030305,32.33333333333333,34.515151515151516,46.84848484848485,63.81818181818181,51.030303030303024,60.090909090909086,29.606060606060606,35.42424242424242,52.96969696969696,57.909090909090914,61.999999999999986,75.51515151515152,69.48484848484847,-10.454545454545455,-21.51515151515152,-21.757575757575758,-6.484848484848476,-10.060606060606068,-31.454545454545457,-21.333333333333336,-4.060606060606062,-10.393939393939386,22.696969696969695,-20.36363636363636,-16.48484848484848,-21.242424242424242,-18.96969696969697,-7.272727272727273,15.515151515151516,45.878787878787875,15.878787878787879,36.848484848484844,34.54545454545454,111.7878787878788,12.575757575757574,10.454545454545455,41.484848484848484,76.24242424242424,83.03030303030302,78.39393939393939,77.84848484848484,99.57575757575756,106.9090909090909,119.12121212121211,115.7878787878788,111.54545454545455,110.78787878787878,125.69696969696967,124.84848484848484,139.06060606060603,138.03030303030303,143.24242424242425,116.39393939393938,125.93939393939392,112.03030303030302,103.48484848484847
88,0.35,T2,1,35.666666666666664,43.060606060606055,30.06060606060606,25.666666666666668,46.12121212121212,63.3030303030303,64.45454545454545,104.3030303030303,73.33333333333333,78.51515151515152,88.84848484848483,114.8181818181818,103.03030303030303,109.09090909090908,71.60606060606061,76.42424242424242,94.96969696969697,105.9090909090909,111.99999999999999,128.5151515151515,120.48484848484848,12.545454545454541,8.48484848484848,22.24242424242424,15.515151515151516,12.939393939393936,4.545454545454546,19.666666666666664,31.939393939393938,7.606060606060611,46.696969696969695,19.636363636363637,14.515151515151514,17.757575757575758,21.030303030303028,26.727272727272727,45.515151515151516,73.87878787878789,33.878787878787875,53.84848484848485,29.545454545454547,91.7878787878788,28.575757575757574,22.45454545454546,67.48484848484848,108.24242424242425,120.03030303030303,101.39393939393938,94.84848484848484,112.57575757575756,120.90909090909092,135.12121212121212,129.78787878787878,128.54545454545453,125.7878787878788,130.6969696969697,124.84848484848484,135.06060606060606,144.030303030303,148.24242424242425,147.39393939393938,156.93939393939394,144.030303030303,156.4848484848485
89,0.35625,T2,1,22.666666666666668,28.060606060606062,28.06060606060606,33.666666666666664,51.12121212121212,62.3030303030303,55.45454545454545,75.3030303030303,55.33333333333333,59.515151515151516,68.84848484848483,98.81818181818183,83.03030303030303,77.0909090909091,46.6060606060606,49.42424242424242,72.96969696969695,78.9090909090909,82.99999999999999,97.51515151515152,85.48484848484847,-10.454545454545455,-0.5151515151515174,10.24242424242424,-8.484848484848484,-10.060606060606068,-8.454545454545455,6.666666666666667,24.939393939393938,-26.393939393939384,12.696969696969695,-6.363636363636363,-13.484848484848486,-3.2424242424242435,4.030303030303029,5.727272727272726,26.515151515151512,53.87878787878788,-15.121212121212123,24.84848484848485,-18.45454545454545,45.78787878787878,-17.424242424242422,2.454545454545457,15.484848484848484,69.24242424242425,61.03030303030303,52.39393939393939,53.84848484848485,67.57575757575756,74.9090909090909,83.12121212121211,78.78787878787878,75.54545454545455,70.78787878787878,78.6969696969697,81.84848484848486,87.06060606060606,94.03030303030303,87.24242424242424,127.39393939393938,128.9393939393939,116.03030303030302,119.48484848484848
90,0.3625,T2,1,-23.333333333333332,-10.939393939393938,-8.93939393939394,-1.333333333333333,9.121212121212121,22.303030303030305,18.454545454545457,30.3030303030303,20.333333333333332,29.51515151515152,36.84848484848485,64.81818181818181,41.030303030303024,35.090909090909086,13.606060606060607,25.424242424242422,47.96969696969696,50.90909090909091,56.99999999999999,66.51515151515152,51.48484848484848,-36.45454545454545,-16.51515151515152,-7.757575757575758,-37.484848484848484,-38.06060606060607,-30.454545454545453,-16.333333333333332,-2.0606060606060628,-58.39393939393939,-6.303030303030305,-25.363636363636363,-31.484848484848488,-24.242424242424242,-17.969696969696972,-12.272727272727275,4.515151515151513,24.878787878787875,-49.12121212121212,-4.15151515151515,-25.45454545454545,0.7878787878787882,-65.42424242424241,-4.545454545454544,-7.515151515151511,55.242424242424235,39.03030303030303,57.39393939393939,69.84848484848484,83.57575757575756,87.9090909090909,93.12121212121211,86.7878787878788,77.54545454545455,73.78787878787878,97.6969696969697,104.84848484848484,118.06060606060606,107.03030303030302,90.24242424242424,104.39393939393939,104.93939393939392,84.03030303030302,64.48484848484847
91,0.36875,T2,1,-24.33333333333333,-1.9393939393939394,-4.9393939393939394,-6.333333333333332,3.1212121212121215,13.303030303030303,5.454545454545455,44.3030303030303,33.333333333333336,35.515151515151516,36.84848484848485,58.81818181818182,32.03030303030303,24.090909090909093,27.60606060606061,43.42424242424242,60.96969696969697,56.90909090909091,60.0,66.51515151515152,45.484848484848484,-42.45454545454546,-39.515151515151516,-30.757575757575754,-40.48484848484848,-42.06060606060606,-39.45454545454545,-30.33333333333333,-23.060606060606062,-69.39393939393938,-5.303030303030308,-34.36363636363635,-33.484848484848484,-36.24242424242424,-29.969696969696972,-24.27272727272727,-12.484848484848483,11.878787878787877,-40.12121212121211,-15.151515151515147,-25.45454545454545,23.78787878787879,-72.42424242424242,-23.545454545454543,-12.51515151515151,46.24242424242424,46.03030303030303,69.39393939393939,79.84848484848484,94.57575757575756,91.90909090909092,97.12121212121212,85.78787878787878,72.54545454545455,58.78787878787879,107.6969696969697,116.84848484848483,129.06060606060603,111.03030303030303,80.24242424242424,106.39393939393938,107.93939393939394,79.03030303030303,39.48484848484848
92,0.375,T2,1,-19.33333333333333,-3.939393939393939,-13.93939393939394,-34.33333333333333,-19.87878787878788,-2.696969696969697,-4.545454545454544,61.3030303030303,36.33333333333333,30.515151515151516,25.848484848484848,41.81818181818182,30.03030303030303,31.090909090909093,33.60606060606061,45.42424242424242,62.96969696969696,63.909090909090914,60.0,73.51515151515152,54.48484848484848,-54.45454545454545,-58.515151515151516,-49.75757575757576,-48.484848484848484,-49.06060606060607,-57.45454545454546,-48.333333333333336,-40.060606060606055,-76.39393939393939,-19.303030303030308,-52.36363636363636,-43.48484848484849,-52.24242424242424,-47.96969696969697,-36.27272727272727,-24.48484848484848,13.878787878787879,-50.12121212121211,-12.151515151515147,-71.45454545454547,48.78787878787879,-66.42424242424242,-34.54545454545454,-9.515151515151512,46.24242424242424,46.03030303030303,67.39393939393938,79.84848484848484,103.57575757575756,103.9090909090909,112.12121212121211,98.78787878787878,87.54545454545455,74.78787878787878,100.69696969696969,113.84848484848484,139.06060606060603,125.03030303030305,104.24242424242424,118.39393939393938,130.9393939393939,108.03030303030303,55.48484848484848
93,0.38125,T2,1,-34.33333333333333,-6.9393939393939394,-14.939393939393941,-41.333333333333336,-18.87878787878788,7.303030303030303,1.4545454545454564,32.3030303030303,28.333333333333332,32.515151515151516,36.84848484848485,57.81818181818181,45.030303030303024,46.09090909090909,20.60606060606061,41.42424242424242,62.96969696969696,70.9090909090909,69.0,81.5151515151515,61.484848484848484,-70.45454545454545,-56.51515151515151,-49.75757575757576,-62.484848484848484,-63.06060606060606,-55.45454545454545,-50.333333333333336,-49.06060606060606,-80.3939393939394,-33.3030303030303,-42.36363636363636,-34.484848484848484,-41.24242424242424,-41.969696969696976,-31.272727272727273,-27.48484848484848,7.878787878787878,-64.12121212121211,-24.15151515151515,-48.45454545454546,-17.212121212121207,-48.42424242424242,-30.54545454545454,1.4848484848484906,36.24242424242424,44.03030303030303,64.39393939393939,74.84848484848484,99.57575757575756,100.9090909090909,102.12121212121211,86.7878787878788,75.54545454545455,65.78787878787878,97.6969696969697,109.84848484848486,126.06060606060605,109.03030303030303,96.24242424242424,123.39393939393939,142.93939393939394,127.03030303030303,80.48484848484848
94,0.3875,T2,1,-34.33333333333333,6.0606060606060606,1.0606060606060606,-17.333333333333332,1.1212121212121222,9.303030303030303,-11.545454545454545,34.303030303030305,36.33333333333333,44.515151515151516,44.84848484848485,52.81818181818181,29.030303030303028,11.09090909090909,23.606060606060606,50.42424242424242,66.96969696969697,68.9090909090909,56.99999999999999,54.515151515151516,26.48484848484848,-69.45454545454545,-53.515151515151516,-50.75757575757575,-58.48484848484848,-59.06060606060607,-45.45454545454545,-55.333333333333336,-59.06060606060606,-75.39393939393939,-32.3030303030303,-33.36363636363636,-19.484848484848488,-24.242424242424242,-28.96969696969697,-20.272727272727273,-30.484848484848484,-1.1212121212121204,-47.12121212121212,-31.15151515151515,-17.454545454545453,-32.21212121212121,-61.42424242424242,-29.545454545454543,16.484848484848488,29.242424242424242,53.030303030303024,68.39393939393939,75.84848484848484,91.57575757575756,89.9090909090909,83.12121212121211,66.78787878787878,53.54545454545454,47.78787878787879,103.69696969696969,108.84848484848483,113.06060606060606,90.03030303030303,73.24242424242424,119.3939393939394,130.9393939393939,110.03030303030303,75.48484848484848
95,0.39375,T2,1,-16.333333333333332,23.06060606060606,16.060606060606062,3.6666666666666674,8.121212121212121,10.303030303030305,-4.545454545454544,61.3030303030303,55.33333333333333,57.515151515151516,57.848484848484844,62.81818181818181,32.03030303030303,13.090909090909092,40.60606060606061,60.42424242424242,76.96969696969697,78.9090909090909,64.0,61.51515151515151,33.484848484848484,-55.45454545454545,-43.515151515151516,-35.75757575757575,-48.484848484848484,-48.06060606060607,-33.45454545454545,-35.33333333333333,-29.060606060606062,-76.39393939393939,-28.303030303030297,-27.363636363636363,-10.484848484848484,-14.242424242424242,-18.96969696969697,-15.272727272727273,-19.48484848484848,14.878787878787875,-38.12121212121212,-15.151515151515147,-29.454545454545453,-25.21212121212121,-56.42424242424242,-30.54545454545454,22.484848484848484,38.242424242424235,59.03030303030303,70.39393939393939,77.84848484848484,95.57575757575756,96.90909090909092,95.1212121212121,83.78787878787878,70.54545454545453,63.78787878787879,97.6969696969697,105.84848484848484,114.06060606060605,102.03030303030302,90.24242424242424,110.39393939393939,114.93939393939392,94.03030303030302,64.48484848484847
96,0.4,T2,1,-19.33333333333333,22.060606060606062,22.060606060606062,12.666666666666666,20.12121212121212,26.303030303030305,7.454545454545453,57.3030303030303,50.33333333333333,59.515151515151516,66.84848484848484,76.81818181818183,46.030303030303024,30.09090909090909,36.60606060606061,53.42424242424242,76.96969696969697,78.9090909090909,74.0,75.51515151515152,50.484848484848484,-59.45454545454545,-52.51515151515152,-50.75757575757575,-49.48484848484848,-49.06060606060607,-27.454545454545453,-33.333333333333336,-35.060606060606055,-73.39393939393939,-20.303030303030308,-9.363636363636363,-1.4848484848484855,-2.2424242424242427,-6.96969696969697,-1.2727272727272738,-6.4848484848484835,23.87878787878788,-36.121212121212125,-8.151515151515145,-4.454545454545455,21.787878787878785,-44.424242424242415,-19.545454545454543,30.484848484848488,25.242424242424242,66.03030303030303,70.39393939393939,68.84848484848484,90.57575757575758,95.9090909090909,100.12121212121211,88.78787878787878,80.54545454545455,66.7878787878788,87.6969696969697,97.84848484848483,106.06060606060606,105.03030303030303,98.24242424242424,103.39393939393939,103.93939393939394,80.03030303030303,59.48484848484848
97,0.40625,T2,1,2.666666666666668,33.06060606060606,31.060606060606055,15.666666666666666,29.12121212121212,35.3030303030303,19.454545454545453,76.3030303030303,55.33333333333333,60.515151515151516,67.84848484848484,73.81818181818181,50.030303030303024,40.090909090909086,40.60606060606061,56.42424242424242,72.96969696969695,75.9090909090909,74.0,80.51515151515152,59.48484848484848,-40.45454545454545,-47.51515151515152,-47.75757575757576,-28.484848484848484,-27.060606060606062,-20.454545454545453,-30.33333333333333,-39.06060606060606,-49.393939393939384,6.696969696969693,-7.363636363636364,7.515151515151515,0.7575757575757573,-1.9696969696969704,4.727272727272727,-9.48484848484848,25.87878787878788,-12.121212121212118,-13.151515151515149,-19.454545454545453,20.787878787878785,-41.42424242424242,-13.545454545454543,22.484848484848484,47.242424242424235,48.030303030303024,62.3939393939394,56.84848484848485,74.57575757575758,84.9090909090909,86.12121212121212,78.78787878787878,76.54545454545455,71.7878787878788,81.69696969696969,87.84848484848483,88.06060606060606,93.03030303030303,87.24242424242424,92.39393939393939,91.93939393939394,63.030303030303024,44.48484848484848
